%OpenBCI Raw EEG Data
%Number of channels = 4
%Sample Rate = 200 Hz
%Board = OpenBCI_GUI$BoardGanglionBLE
Sample Index, EXG Channel 0, EXG Channel 1, EXG Channel 2, EXG Channel 3, Accel Channel 0, Accel Channel 1, Accel Channel 2, Other, Other, Other, Other, Other, Timestamp, Timestamp (Formatted)
4.0, 11.085063934326172, 23.759584426879883, 23.714706420898438, 31.041170120239258, 0.0, 0.0, 0.0, 0.0, 0.0, 0.0, 0.0, 0.0, 1.613351154435488E9, 2021-02-14 20:05:54.435
4.0, 1.3239245414733887, 1.1593689918518066, 0.34033089876174927, 7.229226589202881, 0.0, 0.0, 0.0, 0.0, 0.0, 0.0, 0.0, 0.0, 1.613351154435488E9, 2021-02-14 20:05:54.435
5.0, 5.194721221923828, 10.310904502868652, 11.41043472290039, 16.549057006835938, 0.0, 0.0, 0.0, 0.0, 0.0, 0.0, 0.0, 0.0, 1.613351154449342E9, 2021-02-14 20:05:54.449
5.0, 10.965386390686035, 13.665594100952148, 20.517091751098633, 33.711456298828125, 0.0, 0.0, 0.0, 0.0, 0.0, 0.0, 0.0, 0.0, 1.613351154449342E9, 2021-02-14 20:05:54.449
6.0, 7.94354772567749, 10.845709800720215, 9.087956428527832, 24.788057327270508, 0.0, 0.0, 0.0, 0.0, 0.0, 0.0, 0.0, 0.0, 1.613351154464696E9, 2021-02-14 20:05:54.464
6.0, 3.863316535949707, 3.1751749515533447, 2.146702527999878, 8.478353500366211, 0.0, 0.0, 0.0, 0.0, 0.0, 0.0, 0.0, 0.0, 1.613351154464696E9, 2021-02-14 20:05:54.464
7.0, 9.147795677185059, 15.041877746582031, 17.67102813720703, 24.889034271240234, 0.0, 0.0, 0.0, 0.0, 0.0, 0.0, 0.0, 0.0, 1.613351154496372E9, 2021-02-14 20:05:54.496
7.0, 9.215113639831543, 19.26796531677246, 26.03718376159668, 31.89386749267578, 0.0, 0.0, 0.0, 0.0, 0.0, 0.0, 0.0, 0.0, 1.613351154496372E9, 2021-02-14 20:05:54.496
8.0, 0.9686340689659119, 1.7315737009048462, -0.7405002117156982, 5.624809741973877, 0.0, 0.0, 0.0, 0.0, 0.0, 0.0, 0.0, 0.0, 1.613351154497106E9, 2021-02-14 20:05:54.497
8.0, 8.912181854248047, 14.768864631652832, 13.762831687927246, 18.979991912841797, 0.0, 0.0, 0.0, 0.0, 0.0, 0.0, 0.0, 0.0, 1.613351154497106E9, 2021-02-14 20:05:54.497
9.0, 9.963093757629395, 18.303070068359375, 23.041522979736328, 29.118860244750977, 0.0, 0.0, 0.0, 0.0, 0.0, 0.0, 0.0, 0.0, 1.613351154497808E9, 2021-02-14 20:05:54.497
9.0, 1.9260485172271729, -0.6806617975234985, -2.8385841846466064, 7.999646186828613, 0.0, 0.0, 0.0, 0.0, 0.0, 0.0, 0.0, 0.0, 1.613351154497808E9, 2021-02-14 20:05:54.497
10.0, 8.156722068786621, 10.049111366271973, 9.110396385192871, 17.15492057800293, 0.0, 0.0, 1.040000081062317, 0.0, 0.0, 0.0, 0.0, 0.0, 1.613351154498588E9, 2021-02-14 20:05:54.498
10.0, 9.31609058380127, 21.0631160736084, 23.385595321655273, 32.36883544921875, 0.0, 0.0, 1.040000081062317, 0.0, 0.0, 0.0, 0.0, 0.0, 1.613351154498588E9, 2021-02-14 20:05:54.498
11.0, 9.985532760620117, 9.656421661376953, 11.728325843811035, 22.117769241333008, 0.0, 0.01600000075995922, 1.040000081062317, 0.0, 0.0, 0.0, 0.0, 0.0, 1.613351154509288E9, 2021-02-14 20:05:54.509
11.0, 5.692127704620361, 7.820130825042725, 4.184947967529297, 8.99071979522705, 0.0, 0.01600000075995922, 1.040000081062317, 0.0, 0.0, 0.0, 0.0, 0.0, 1.613351154509288E9, 2021-02-14 20:05:54.509
12.0, 7.296545028686523, 13.515998840332031, 14.462193489074707, 19.017391204833984, 0.08000000566244125, 0.01600000075995922, 1.040000081062317, 0.0, 0.0, 0.0, 0.0, 0.0, 1.613351154524956E9, 2021-02-14 20:05:54.524
12.0, 9.458207130432129, 25.304162979125977, 23.86056137084961, 35.106441497802734, 0.08000000566244125, 0.01600000075995922, 1.040000081062317, 0.0, 0.0, 0.0, 0.0, 0.0, 1.613351154524956E9, 2021-02-14 20:05:54.524
13.0, -2.8198845386505127, 1.578237771987915, -1.604417085647583, 5.2620391845703125, 0.08000000566244125, 0.01600000075995922, 1.040000081062317, 0.0, 0.0, 0.0, 0.0, 0.0, 1.613351154525689E9, 2021-02-14 20:05:54.525
13.0, 5.415375232696533, 10.378222465515137, 12.360369682312012, 24.754398345947266, 0.08000000566244125, 0.01600000075995922, 1.040000081062317, 0.0, 0.0, 0.0, 0.0, 0.0, 1.613351154525689E9, 2021-02-14 20:05:54.525
14.0, 13.261685371398926, 21.351089477539062, 23.36689567565918, 26.111982345581055, 0.08000000566244125, 0.01600000075995922, 1.040000081062317, 0.0, 0.0, 0.0, 0.0, 0.0, 1.613351154555613E9, 2021-02-14 20:05:54.555
14.0, 1.5894575119018555, 2.0606849193573, -1.5857175588607788, 10.5315580368042, 0.08000000566244125, 0.01600000075995922, 1.040000081062317, 0.0, 0.0, 0.0, 0.0, 0.0, 1.613351154555613E9, 2021-02-14 20:05:54.555
15.0, 6.0810770988464355, 12.5062255859375, 8.93088150024414, 12.81663703918457, 0.08000000566244125, 0.01600000075995922, 1.040000081062317, 0.0, 0.0, 0.0, 0.0, 0.0, 1.613351154556403E9, 2021-02-14 20:05:54.556
15.0, 14.383655548095703, 20.846202850341797, 23.62120819091797, 21.201492309570312, 0.08000000566244125, 0.01600000075995922, 1.040000081062317, 0.0, 0.0, 0.0, 0.0, 0.0, 1.613351154556403E9, 2021-02-14 20:05:54.556
16.0, 10.120169639587402, 10.920507431030273, 15.475706100463867, 22.51793670654297, 0.08000000566244125, 0.01600000075995922, 1.040000081062317, 0.0, 0.0, 0.0, 0.0, 0.0, 1.613351154557196E9, 2021-02-14 20:05:54.557
16.0, 6.178314685821533, 3.2200539112091064, -0.8115583062171936, 11.99385929107666, 0.08000000566244125, 0.01600000075995922, 1.040000081062317, 0.0, 0.0, 0.0, 0.0, 0.0, 1.613351154557196E9, 2021-02-14 20:05:54.557
17.0, 6.851496696472168, 8.556891441345215, 7.640615463256836, 20.80132293701172, 0.08000000566244125, 0.01600000075995922, 1.040000081062317, 0.0, 0.0, 0.0, 0.0, 0.0, 1.613351154569303E9, 2021-02-14 20:05:54.569
17.0, 7.7341132164001465, 23.12006187438965, 26.272796630859375, 28.38957977294922, 0.08000000566244125, 0.01600000075995922, 1.040000081062317, 0.0, 0.0, 0.0, 0.0, 0.0, 1.613351154569303E9, 2021-02-14 20:05:54.569
18.0, 2.6740283966064453, 2.6777684688568115, 0.77415931224823, 0.49366679787635803, 0.08000000566244125, 0.01600000075995922, 1.040000081062317, 0.0, 0.0, 0.0, 0.0, 0.0, 1.613351154584941E9, 2021-02-14 20:05:54.584
18.0, 7.072150707244873, 15.064316749572754, 13.456159591674805, 21.074337005615234, 0.08000000566244125, 0.01600000075995922, 1.040000081062317, 0.0, 0.0, 0.0, 0.0, 0.0, 1.613351154584941E9, 2021-02-14 20:05:54.584
19.0, 13.931127548217773, 20.027164459228516, 20.988319396972656, 24.17097282409668, 0.08000000566244125, 0.01600000075995922, 1.040000081062317, 0.0, 0.0, 0.0, 0.0, 0.0, 1.613351154585684E9, 2021-02-14 20:05:54.585
19.0, -1.2827856540679932, 4.207387447357178, 1.903609037399292, 8.702747344970703, 0.08000000566244125, 0.01600000075995922, 1.040000081062317, 0.0, 0.0, 0.0, 0.0, 0.0, 1.613351154585684E9, 2021-02-14 20:05:54.585
20.0, 8.194120407104492, 10.187487602233887, 13.904948234558105, 19.686832427978516, 0.08000000566244125, 0.01600000075995922, 1.040000081062317, 0.0, 0.0, 0.0, 0.0, 0.0, 1.613351154599218E9, 2021-02-14 20:05:54.599
20.0, 11.892881393432617, 20.67416763305664, 23.841861724853516, 33.22901153564453, 0.08000000566244125, 0.01600000075995922, 1.040000081062317, 0.0, 0.0, 0.0, 0.0, 0.0, 1.613351154599218E9, 2021-02-14 20:05:54.599
21.0, 5.441554546356201, 13.557137489318848, 12.341670036315918, 26.153120040893555, 0.08000000566244125, 0.01600000075995922, 1.040000081062317, 0.0, 0.0, 0.0, 0.0, 0.0, 1.613351154615017E9, 2021-02-14 20:05:54.615
21.0, 2.445894479751587, 6.776698589324951, 5.026425361633301, 13.235506057739258, 0.08000000566244125, 0.01600000075995922, 1.040000081062317, 0.0, 0.0, 0.0, 0.0, 0.0, 1.613351154615017E9, 2021-02-14 20:05:54.615
22.0, 7.894928932189941, 11.242138862609863, 15.81603717803955, 24.739439010620117, 0.08000000566244125, 0.01600000075995922, 1.040000081062317, 0.0, 0.0, 0.0, 0.0, 0.0, 1.613351154615756E9, 2021-02-14 20:05:54.615
22.0, 14.260238647460938, 17.921600341796875, 27.76127815246582, 31.748010635375977, 0.08000000566244125, 0.01600000075995922, 1.040000081062317, 0.0, 0.0, 0.0, 0.0, 0.0, 1.613351154615756E9, 2021-02-14 20:05:54.615
23.0, 0.7442401051521301, -0.19447480142116547, -1.8998692035675049, 4.551458358764648, 0.08000000566244125, 0.01600000075995922, 1.040000081062317, 0.0, 0.0, 0.0, 0.0, 0.0, 1.613351154629292E9, 2021-02-14 20:05:54.629
23.0, 7.562077522277832, 9.360969543457031, 11.773204803466797, 20.505870819091797, 0.08000000566244125, 0.01600000075995922, 1.040000081062317, 0.0, 0.0, 0.0, 0.0, 0.0, 1.613351154629292E9, 2021-02-14 20:05:54.629
24.0, 10.243585586547852, 21.50068473815918, 21.646541595458984, 33.87227249145508, 0.08000000566244125, 0.01600000075995922, 1.040000081062317, 0.0, 0.0, 0.0, 0.0, 0.0, 1.61335115464503E9, 2021-02-14 20:05:54.645
24.0, 2.5132126808166504, 3.160215377807617, 1.847510576248169, 2.8385841846466064, 0.08000000566244125, 0.01600000075995922, 1.040000081062317, 0.0, 0.0, 0.0, 0.0, 0.0, 1.61335115464503E9, 2021-02-14 20:05:54.645
25.0, 6.376529216766357, 9.461946487426758, 11.593689918518066, 22.065410614013672, 0.08000000566244125, 0.01600000075995922, 1.040000081062317, 0.0, 0.0, 0.0, 0.0, 0.0, 1.613351154645774E9, 2021-02-14 20:05:54.645
25.0, 12.199553489685059, 14.058283805847168, 17.53639030456543, 29.485370635986328, 0.08000000566244125, 0.01600000075995922, 1.040000081062317, 0.0, 0.0, 0.0, 0.0, 0.0, 1.613351154645774E9, 2021-02-14 20:05:54.645
26.0, 6.716860294342041, 12.521184921264648, 18.486326217651367, 20.27773666381836, 0.08000000566244125, 0.01600000075995922, 1.040000081062317, 0.0, 0.0, 0.0, 0.0, 0.0, 1.613351154659292E9, 2021-02-14 20:05:54.659
26.0, 2.7675259113311768, 4.903008937835693, 0.6582223773002625, 9.360969543457031, 0.08000000566244125, 0.01600000075995922, 1.040000081062317, 0.0, 0.0, 0.0, 0.0, 0.0, 1.613351154659292E9, 2021-02-14 20:05:54.659
27.0, 10.303424835205078, 16.39946174621582, 12.94753360748291, 17.15492057800293, 0.08000000566244125, 0.01600000075995922, 1.040000081062317, 0.0, 0.0, 0.0, 0.0, 0.0, 1.613351154691327E9, 2021-02-14 20:05:54.691
27.0, 7.52841854095459, 16.27230453491211, 20.898561477661133, 31.848987579345703, 0.08000000566244125, 0.01600000075995922, 1.040000081062317, 0.0, 0.0, 0.0, 0.0, 0.0, 1.613351154691327E9, 2021-02-14 20:05:54.691
28.0, -0.2318737953901291, 2.228980302810669, -0.8339976668357849, 1.1219699382781982, 0.08000000566244125, 0.01600000075995922, 1.040000081062317, 0.0, 0.0, 0.0, 0.0, 0.0, 1.613351154692133E9, 2021-02-14 20:05:54.692
28.0, 11.204740524291992, 11.021485328674316, 17.581270217895508, 18.699499130249023, 0.08000000566244125, 0.01600000075995922, 1.040000081062317, 0.0, 0.0, 0.0, 0.0, 0.0, 1.613351154692133E9, 2021-02-14 20:05:54.692
29.0, 13.91242790222168, 24.8478946685791, 24.993751525878906, 31.36280059814453, 0.08000000566244125, 0.01600000075995922, 1.040000081062317, 0.0, 0.0, 0.0, 0.0, 0.0, 1.613351154692946E9, 2021-02-14 20:05:54.692
29.0, 7.965986728668213, 6.245633125305176, 5.0713043212890625, 9.76487922668457, 0.08000000566244125, 0.01600000075995922, 1.040000081062317, 0.0, 0.0, 0.0, 0.0, 0.0, 1.613351154692946E9, 2021-02-14 20:05:54.692
30.0, 3.448187828063965, 8.773805618286133, 7.26662540435791, 16.365802764892578, 0.08000000566244125, 0.01600000075995922, 1.040000081062317, 0.0, 0.0, 0.0, 0.0, 0.0, 1.613351154693624E9, 2021-02-14 20:05:54.693
30.0, 10.58765697479248, 16.530357360839844, 26.485971450805664, 28.84210777282715, 0.08000000566244125, 0.01600000075995922, 1.040000081062317, 0.0, 0.0, 0.0, 0.0, 0.0, 1.613351154693624E9, 2021-02-14 20:05:54.693
31.0, 10.72229290008545, 13.20932674407959, 15.430827140808105, 17.072643280029297, 0.08000000566244125, 0.01600000075995922, 1.040000081062317, 0.0, 0.0, 0.0, 0.0, 0.0, 1.613351154704398E9, 2021-02-14 20:05:54.704
31.0, 3.7099807262420654, 7.360123157501221, 7.7902116775512695, 8.048264503479004, 0.08000000566244125, 0.01600000075995922, 1.040000081062317, 0.0, 0.0, 0.0, 0.0, 0.0, 1.613351154704398E9, 2021-02-14 20:05:54.704
32.0, 6.9449944496154785, 13.504778861999512, 8.534451484680176, 19.410079956054688, 0.08000000566244125, 0.01600000075995922, 1.040000081062317, 0.0, 0.0, 0.0, 0.0, 0.0, 1.613351154719308E9, 2021-02-14 20:05:54.719
32.0, 13.717952728271484, 18.445186614990234, 20.887340545654297, 36.81183624267578, 0.08000000566244125, 0.01600000075995922, 1.040000081062317, 0.0, 0.0, 0.0, 0.0, 0.0, 1.613351154719308E9, 2021-02-14 20:05:54.719
33.0, 5.35927677154541, 4.042831897735596, -0.7143208980560303, 9.3871488571167, 0.08000000566244125, 0.01600000075995922, 1.040000081062317, 0.0, 0.0, 0.0, 0.0, 0.0, 1.613351154751461E9, 2021-02-14 20:05:54.751
33.0, 6.0623779296875, 13.34022331237793, 10.011712074279785, 19.84016990661621, 0.08000000566244125, 0.01600000075995922, 1.040000081062317, 0.0, 0.0, 0.0, 0.0, 0.0, 1.613351154751461E9, 2021-02-14 20:05:54.751
34.0, 8.728926658630371, 22.293542861938477, 20.10196304321289, 30.02765655517578, 0.08000000566244125, 0.01600000075995922, 1.040000081062317, 0.0, 0.0, 0.0, 0.0, 0.0, 1.613351154752097E9, 2021-02-14 20:05:54.752
34.0, -1.9447479248046875, 6.720600128173828, 6.638322353363037, 7.715413570404053, 0.08000000566244125, 0.01600000075995922, 1.040000081062317, 0.0, 0.0, 0.0, 0.0, 0.0, 1.613351154752097E9, 2021-02-14 20:05:54.752
35.0, 9.69756031036377, 12.17337417602539, 12.308011054992676, 15.000739097595215, 0.08000000566244125, 0.01600000075995922, 1.040000081062317, 0.0, 0.0, 0.0, 0.0, 0.0, 1.613351154752887E9, 2021-02-14 20:05:54.752
35.0, 9.237552642822266, 16.739791870117188, 21.25385093688965, 26.168079376220703, 0.08000000566244125, 0.01600000075995922, 1.040000081062317, 0.0, 0.0, 0.0, 0.0, 0.0, 1.613351154752887E9, 2021-02-14 20:05:54.752
36.0, 7.535898208618164, 11.462793350219727, 11.346856117248535, 24.874074935913086, 0.08000000566244125, 0.01600000075995922, 1.040000081062317, 0.0, 0.0, 0.0, 0.0, 0.0, 1.61335115475367E9, 2021-02-14 20:05:54.753
36.0, -0.6918814778327942, 2.2402000427246094, 2.4346749782562256, 8.654128074645996, 0.08000000566244125, 0.01600000075995922, 1.040000081062317, 0.0, 0.0, 0.0, 0.0, 0.0, 1.61335115475367E9, 2021-02-14 20:05:54.753
37.0, 8.785024642944336, 16.062870025634766, 15.038137435913086, 21.160354614257812, 0.08000000566244125, 0.01600000075995922, 1.040000081062317, 0.0, 0.0, 0.0, 0.0, 0.0, 1.613351154764262E9, 2021-02-14 20:05:54.764
37.0, 10.640015602111816, 17.581270217895508, 21.4146671295166, 33.45714569091797, 0.08000000566244125, 0.01600000075995922, 1.040000081062317, 0.0, 0.0, 0.0, 0.0, 0.0, 1.613351154764262E9, 2021-02-14 20:05:54.764
38.0, 1.660515546798706, -3.2163140773773193, -5.437814712524414, 4.850650310516357, 0.08000000566244125, 0.01600000075995922, 1.040000081062317, 0.0, 0.0, 0.0, 0.0, 0.0, 1.613351154779226E9, 2021-02-14 20:05:54.779
38.0, 7.805171012878418, 12.584763526916504, 10.999045372009277, 22.768510818481445, 0.08000000566244125, 0.01600000075995922, 1.040000081062317, 0.0, 0.0, 0.0, 0.0, 0.0, 1.613351154779226E9, 2021-02-14 20:05:54.779
39.0, 11.249619483947754, 18.478845596313477, 24.24203109741211, 33.03079605102539, 0.08000000566244125, 0.01600000075995922, 1.040000081062317, 0.0, 0.0, 0.0, 0.0, 0.0, 1.613351154794979E9, 2021-02-14 20:05:54.794
39.0, -3.4369680881500244, 6.649542331695557, 6.088557243347168, 12.6146821975708, 0.08000000566244125, 0.01600000075995922, 1.040000081062317, 0.0, 0.0, 0.0, 0.0, 0.0, 1.613351154794979E9, 2021-02-14 20:05:54.794
40.0, 5.063824653625488, 9.686341285705566, 11.616128921508789, 9.974312782287598, 0.08000000566244125, 0.01600000075995922, 1.040000081062317, 0.0, 0.0, 0.0, 0.0, 0.0, 1.613351154795721E9, 2021-02-14 20:05:54.795
40.0, 11.990118980407715, 18.351688385009766, 18.51250457763672, 26.52337074279785, 0.08000000566244125, 0.01600000075995922, 1.040000081062317, 0.0, 0.0, 0.0, 0.0, 0.0, 1.613351154795721E9, 2021-02-14 20:05:54.795
41.0, 8.478353500366211, 13.183147430419922, 16.354581832885742, 15.718799591064453, 0.08000000566244125, 0.01600000075995922, 1.040000081062317, 0.0, 0.0, 0.0, 0.0, 0.0, 1.613351154809294E9, 2021-02-14 20:05:54.809
41.0, 6.728079795837402, 2.96574068069458, 3.8184378147125244, 8.900961875915527, 0.08000000566244125, 0.01600000075995922, 1.040000081062317, 0.0, 0.0, 0.0, 0.0, 0.0, 1.613351154809294E9, 2021-02-14 20:05:54.809
42.0, 7.670534610748291, 19.335283279418945, 12.599722862243652, 25.289203643798828, 0.08000000566244125, 0.01600000075995922, 1.040000081062317, 0.0, 0.0, 0.0, 0.0, 0.0, 1.613351154825034E9, 2021-02-14 20:05:54.825
42.0, 8.867302894592285, 16.930526733398438, 19.825210571289062, 32.484771728515625, 0.08000000566244125, 0.01600000075995922, 1.040000081062317, 0.0, 0.0, 0.0, 0.0, 0.0, 1.613351154825034E9, 2021-02-14 20:05:54.825
43.0, 3.28737211227417, -1.207987666130066, -4.345763683319092, 3.1078567504882812, 0.08000000566244125, 0.01600000075995922, 1.040000081062317, 0.0, 0.0, 0.0, 0.0, 0.0, 1.613351154825764E9, 2021-02-14 20:05:54.825
43.0, 5.845463752746582, 12.62590217590332, 12.797937393188477, 23.23973846435547, 0.08000000566244125, 0.01600000075995922, 1.040000081062317, 0.0, 0.0, 0.0, 0.0, 0.0, 1.613351154825764E9, 2021-02-14 20:05:54.825
44.0, 11.518892288208008, 18.54616355895996, 23.194860458374023, 25.087249755859375, 0.08000000566244125, 0.01600000075995922, 1.040000081062317, 0.0, 0.0, 0.0, 0.0, 0.0, 1.613351154839281E9, 2021-02-14 20:05:54.839
44.0, 2.098083972930908, 4.929188251495361, 1.2416467666625977, 2.0045864582061768, 0.08000000566244125, 0.01600000075995922, 1.040000081062317, 0.0, 0.0, 0.0, 0.0, 0.0, 1.613351154839281E9, 2021-02-14 20:05:54.839
45.0, 6.877676010131836, 11.055144309997559, 13.041030883789062, 13.77031135559082, 0.08000000566244125, 0.01600000075995922, 1.040000081062317, 0.0, 0.0, 0.0, 0.0, 0.0, 1.613351154854994E9, 2021-02-14 20:05:54.854
45.0, 11.436614036560059, 20.173019409179688, 23.643648147583008, 24.60854148864746, 0.08000000566244125, 0.01600000075995922, 1.040000081062317, 0.0, 0.0, 0.0, 0.0, 0.0, 1.613351154854994E9, 2021-02-14 20:05:54.854
46.0, 4.237306594848633, 11.870442390441895, 14.241539001464844, 19.174467086791992, 0.08000000566244125, 0.01600000075995922, 1.040000081062317, 0.0, 0.0, 0.0, 0.0, 0.0, 1.613351154855738E9, 2021-02-14 20:05:54.855
46.0, 1.1481492519378662, 0.991073489189148, 0.8452174067497253, 13.205586433410645, 0.08000000566244125, 0.01600000075995922, 1.040000081062317, 0.0, 0.0, 0.0, 0.0, 0.0, 1.613351154855738E9, 2021-02-14 20:05:54.855
47.0, 5.411635398864746, 18.089895248413086, 14.914721488952637, 22.850788116455078, 0.08000000566244125, 0.01600000075995922, 1.040000081062317, 0.0, 0.0, 0.0, 0.0, 0.0, 1.613351154869297E9, 2021-02-14 20:05:54.869
47.0, 12.966233253479004, 22.259883880615234, 21.71385955810547, 32.110782623291016, 0.08000000566244125, 0.01600000075995922, 1.040000081062317, 0.0, 0.0, 0.0, 0.0, 0.0, 1.613351154869297E9, 2021-02-14 20:05:54.869
48.0, -0.09723740071058273, 2.3449172973632812, 0.1682955026626587, 9.57414436340332, 0.08000000566244125, 0.01600000075995922, 1.040000081062317, 0.0, 0.0, 0.0, 0.0, 0.0, 1.613351154885037E9, 2021-02-14 20:05:54.885
48.0, 9.44324779510498, 7.827610492706299, 12.034997940063477, 25.304162979125977, 0.08000000566244125, 0.01600000075995922, 1.040000081062317, 0.0, 0.0, 0.0, 0.0, 0.0, 1.613351154885037E9, 2021-02-14 20:05:54.885
49.0, 9.241292953491211, 16.698654174804688, 25.248064041137695, 30.154813766479492, 0.08000000566244125, 0.01600000075995922, 1.040000081062317, 0.0, 0.0, 0.0, 0.0, 0.0, 1.61335115488573E9, 2021-02-14 20:05:54.885
49.0, 4.031611919403076, -0.11593689769506454, 3.051758289337158, 12.345409393310547, 0.08000000566244125, 0.01600000075995922, 1.040000081062317, 0.0, 0.0, 0.0, 0.0, 0.0, 1.61335115488573E9, 2021-02-14 20:05:54.885
50.0, 7.8425703048706055, 10.101469993591309, 9.039338111877441, 17.278337478637695, 0.08000000566244125, 0.01600000075995922, 1.040000081062317, 0.0, 0.0, 0.0, 0.0, 0.0, 1.613351154899248E9, 2021-02-14 20:05:54.899
50.0, 13.848849296569824, 19.066009521484375, 21.38100814819336, 24.31308937072754, 0.08000000566244125, 0.01600000075995922, 1.040000081062317, 0.0, 0.0, 0.0, 0.0, 0.0, 1.613351154899248E9, 2021-02-14 20:05:54.899
51.0, 8.777544975280762, 12.135974884033203, 11.608649253845215, 19.941146850585938, 0.08000000566244125, 0.01600000075995922, 1.040000081062317, 0.0, 0.0, 0.0, 0.0, 0.0, 1.613351154914994E9, 2021-02-14 20:05:54.914
51.0, 4.083970546722412, 5.501392841339111, 5.067564487457275, 9.731219291687012, 0.08000000566244125, 0.01600000075995922, 1.040000081062317, 0.0, 0.0, 0.0, 0.0, 0.0, 1.613351154914994E9, 2021-02-14 20:05:54.914
52.0, 9.69756031036377, 14.488372802734375, 18.576082229614258, 18.63218116760254, 0.08000000566244125, 0.01600000075995922, 1.040000081062317, 0.0, 0.0, 0.0, 0.0, 0.0, 1.613351154915713E9, 2021-02-14 20:05:54.915
52.0, 11.436614036560059, 18.635921478271484, 18.097375869750977, 28.70747184753418, 0.08000000566244125, 0.01600000075995922, 1.040000081062317, 0.0, 0.0, 0.0, 0.0, 0.0, 1.613351154915713E9, 2021-02-14 20:05:54.915
53.0, -3.9904732704162598, -0.9200153946876526, 0.7330203652381897, 4.5028395652771, 0.08000000566244125, 0.01600000075995922, 1.040000081062317, 0.0, 0.0, 0.0, 0.0, 0.0, 1.613351154929192E9, 2021-02-14 20:05:54.929
53.0, 8.448433876037598, 11.429134368896484, 11.709627151489258, 22.102807998657227, 0.08000000566244125, 0.01600000075995922, 1.040000081062317, 0.0, 0.0, 0.0, 0.0, 0.0, 1.613351154929192E9, 2021-02-14 20:05:54.929
54.0, 12.251912117004395, 21.04815673828125, 26.138160705566406, 33.232749938964844, 0.08000000566244125, 0.01600000075995922, 1.040000081062317, 0.0, 0.0, 0.0, 0.0, 0.0, 1.613351154944977E9, 2021-02-14 20:05:54.944
54.0, 3.4369680881500244, 2.0008463859558105, 1.8101115226745605, 11.877922058105469, 0.08000000566244125, 0.01600000075995922, 1.040000081062317, 0.0, 0.0, 0.0, 0.0, 0.0, 1.613351154944977E9, 2021-02-14 20:05:54.944
55.0, 11.81434440612793, 11.156121253967285, 9.873335838317871, 16.163846969604492, 0.08000000566244125, 0.01600000075995922, 1.040000081062317, 0.0, 0.0, 0.0, 0.0, 0.0, 1.6133511549457E9, 2021-02-14 20:05:54.945
55.0, 7.827610492706299, 18.381608963012695, 23.09014320373535, 25.906286239624023, 0.08000000566244125, 0.01600000075995922, 1.040000081062317, 0.0, 0.0, 0.0, 0.0, 0.0, 1.6133511549457E9, 2021-02-14 20:05:54.945
56.0, 9.319830894470215, 13.796490669250488, 13.254205703735352, 25.76791000366211, 0.08000000566244125, 0.01600000075995922, 1.040000081062317, 0.0, 0.0, 0.0, 0.0, 0.0, 1.613351154975623E9, 2021-02-14 20:05:54.975
56.0, 6.701900482177734, 7.464840412139893, -0.8040785193443298, 8.04078483581543, 0.08000000566244125, 0.01600000075995922, 1.040000081062317, 0.0, 0.0, 0.0, 0.0, 0.0, 1.613351154975623E9, 2021-02-14 20:05:54.975
57.0, 12.416467666625977, 13.57957649230957, 11.780684471130371, 23.43047332763672, 0.08000000566244125, 0.01600000075995922, 1.040000081062317, 0.0, 0.0, 0.0, 0.0, 0.0, 1.613351154976363E9, 2021-02-14 20:05:54.976
57.0, 11.986379623413086, 18.568603515625, 17.839323043823242, 27.462085723876953, 0.08000000566244125, 0.01600000075995922, 1.040000081062317, 0.0, 0.0, 0.0, 0.0, 0.0, 1.613351154976363E9, 2021-02-14 20:05:54.976
58.0, -2.7338669300079346, 0.8863562941551208, -1.92978835105896, 0.8751366138458252, 0.08000000566244125, 0.01600000075995922, 1.040000081062317, 0.0, 0.0, 0.0, 0.0, 0.0, 1.613351154977113E9, 2021-02-14 20:05:54.977
58.0, 7.094590187072754, 15.015698432922363, 15.460746765136719, 20.84246253967285, 0.08000000566244125, 0.01600000075995922, 1.040000081062317, 0.0, 0.0, 0.0, 0.0, 0.0, 1.613351154977113E9, 2021-02-14 20:05:54.977
59.0, 13.867548942565918, 20.87238121032715, 27.615421295166016, 35.56644821166992, 0.08000000566244125, 0.01600000075995922, 1.040000081062317, 0.0, 0.0, 0.0, 0.0, 0.0, 1.613351154989278E9, 2021-02-14 20:05:54.989
59.0, 4.9890265464782715, 6.709380626678467, -1.5557984113693237, 11.55255126953125, 0.08000000566244125, 0.01600000075995922, 1.040000081062317, 0.0, 0.0, 0.0, 0.0, 0.0, 1.613351154989278E9, 2021-02-14 20:05:54.989
60.0, 7.835090637207031, 9.084217071533203, 9.57788372039795, 13.91242790222168, 0.08000000566244125, 0.01600000075995922, 1.040000081062317, 0.0, 0.0, 0.0, 0.0, 0.0, 1.613351155005341E9, 2021-02-14 20:05:55.005
60.0, 6.230673313140869, 17.510211944580078, 20.330095291137695, 25.13960838317871, 0.08000000566244125, 0.01600000075995922, 1.040000081062317, 0.0, 0.0, 0.0, 0.0, 0.0, 1.613351155005341E9, 2021-02-14 20:05:55.005
61.0, 5.3966755867004395, 18.25819206237793, 12.00507926940918, 25.60709571838379, 0.08000000566244125, 0.01600000075995922, 1.040000081062317, 0.0, 0.0, 0.0, 0.0, 0.0, 1.613351155019923E9, 2021-02-14 20:05:55.019
61.0, 4.2260870933532715, 5.774405479431152, 7.752812385559082, 11.713366508483887, 0.08000000566244125, 0.01600000075995922, 1.040000081062317, 0.0, 0.0, 0.0, 0.0, 0.0, 1.613351155019923E9, 2021-02-14 20:05:55.019
62.0, 7.81265115737915, 7.921108245849609, 13.609496116638184, 25.816530227661133, 0.08000000566244125, 0.01600000075995922, 1.040000081062317, 0.0, 0.0, 0.0, 0.0, 0.0, 1.613351155020722E9, 2021-02-14 20:05:55.020
62.0, 8.86356258392334, 20.73774528503418, 27.10305404663086, 25.614574432373047, 0.08000000566244125, 0.01600000075995922, 1.040000081062317, 0.0, 0.0, 0.0, 0.0, 0.0, 1.613351155020722E9, 2021-02-14 20:05:55.020
63.0, -2.636629581451416, 2.1055636405944824, -2.038245439529419, 3.885756015777588, 0.08000000566244125, 0.01600000075995922, 1.040000081062317, 0.0, 0.0, 0.0, 0.0, 0.0, 1.613351155034912E9, 2021-02-14 20:05:55.034
63.0, 8.014605522155762, 11.87418270111084, 10.942947387695312, 19.630735397338867, 0.08000000566244125, 0.01600000075995922, 1.040000081062317, 0.0, 0.0, 0.0, 0.0, 0.0, 1.613351155034912E9, 2021-02-14 20:05:55.034
64.0, 10.479199409484863, 22.2075252532959, 20.45351219177246, 35.42433166503906, 0.08000000566244125, 0.01600000075995922, 1.040000081062317, 0.0, 0.0, 0.0, 0.0, 0.0, 1.613351155035666E9, 2021-02-14 20:05:55.035
64.0, 4.6898345947265625, 3.451927661895752, 2.2402000427246094, 12.240692138671875, 0.08000000566244125, 0.01600000075995922, 1.040000081062317, 0.0, 0.0, 0.0, 0.0, 0.0, 1.613351155035666E9, 2021-02-14 20:05:55.035
65.0, 4.012912750244141, 9.963093757629395, 11.111242294311523, 15.595382690429688, 0.08000000566244125, 0.01600000075995922, 1.040000081062317, 0.0, 0.0, 0.0, 0.0, 0.0, 1.613351155049209E9, 2021-02-14 20:05:55.049
65.0, 12.700699806213379, 20.345056533813477, 22.446880340576172, 26.25409698486328, 0.08000000566244125, 0.01600000075995922, 1.040000081062317, 0.0, 0.0, 0.0, 0.0, 0.0, 1.613351155049209E9, 2021-02-14 20:05:55.049
66.0, 3.837137460708618, 10.692374229431152, 13.893728256225586, 19.746671676635742, 0.08000000566244125, 0.01600000075995922, 1.040000081062317, 0.0, 0.0, 0.0, 0.0, 0.0, 1.61335115506495E9, 2021-02-14 20:05:55.064
66.0, 3.997952938079834, 7.498499393463135, 6.174574851989746, 5.624809741973877, 0.08000000566244125, 0.01600000075995922, 1.040000081062317, 0.0, 0.0, 0.0, 0.0, 0.0, 1.61335115506495E9, 2021-02-14 20:05:55.064
67.0, 9.364709854125977, 13.34022331237793, 17.532651901245117, 20.135622024536133, 0.08000000566244125, 0.01600000075995922, 1.040000081062317, 0.0, 0.0, 0.0, 0.0, 0.0, 1.613351155065664E9, 2021-02-14 20:05:55.065
67.0, 10.101469993591309, 19.1258487701416, 21.16783332824707, 31.175806045532227, 0.08000000566244125, 0.01600000075995922, 1.040000081062317, 0.0, 0.0, 0.0, 0.0, 0.0, 1.613351155065664E9, 2021-02-14 20:05:55.065
68.0, -1.6679953336715698, -3.373389720916748, -4.435521125793457, 5.987579822540283, 0.08000000566244125, 0.01600000075995922, 1.040000081062317, 0.0, 0.0, 0.0, 0.0, 0.0, 1.613351155079271E9, 2021-02-14 20:05:55.079
68.0, 6.776698589324951, 14.170480728149414, 16.25734519958496, 18.101116180419922, 0.08000000566244125, 0.01600000075995922, 1.040000081062317, 0.0, 0.0, 0.0, 0.0, 0.0, 1.613351155079271E9, 2021-02-14 20:05:55.079
69.0, 13.385102272033691, 22.196306228637695, 28.857067108154297, 30.457744598388672, 0.08000000566244125, 0.01600000075995922, 1.040000081062317, 0.0, 0.0, 0.0, 0.0, 0.0, 1.613351155094887E9, 2021-02-14 20:05:55.094
69.0, 3.0255789756774902, 1.252866506576538, 0.044878799468278885, 11.032705307006836, 0.08000000566244125, 0.01600000075995922, 1.040000081062317, 0.0, 0.0, 0.0, 0.0, 0.0, 1.613351155094887E9, 2021-02-14 20:05:55.094
70.0, 10.494159698486328, 9.06551742553711, 5.276998996734619, 15.284971237182617, 0.08000000566244125, 0.01600000075995922, 1.040000081062317, 0.0, 0.0, 0.0, 0.0, 0.0, 1.613351155095634E9, 2021-02-14 20:05:55.095
70.0, 14.136821746826172, 15.902054786682129, 20.846202850341797, 27.331188201904297, 0.08000000566244125, 0.01600000075995922, 1.040000081062317, 0.0, 0.0, 0.0, 0.0, 0.0, 1.613351155095634E9, 2021-02-14 20:05:55.095
71.0, 3.7660791873931885, 7.5882568359375, 10.198707580566406, 15.726279258728027, 0.08000000566244125, 0.01600000075995922, 1.040000081062317, 0.0, 0.0, 0.0, 0.0, 0.0, 1.613351155109301E9, 2021-02-14 20:05:55.109
71.0, 2.715167284011841, 10.198707580566406, 7.412481784820557, 14.185440063476562, 0.08000000566244125, 0.01600000075995922, 1.040000081062317, 0.0, 0.0, 0.0, 0.0, 0.0, 1.613351155109301E9, 2021-02-14 20:05:55.109
72.0, 11.077583312988281, 16.578975677490234, 13.549657821655273, 25.622055053710938, 0.08000000566244125, 0.01600000075995922, 1.040000081062317, 0.0, 0.0, 0.0, 0.0, 0.0, 1.613351155124892E9, 2021-02-14 20:05:55.124
72.0, 10.834489822387695, 23.123802185058594, 22.58151626586914, 33.41226577758789, 0.08000000566244125, 0.01600000075995922, 1.040000081062317, 0.0, 0.0, 0.0, 0.0, 0.0, 1.613351155124892E9, 2021-02-14 20:05:55.124
73.0, 2.9732203483581543, 2.9208619594573975, -3.9044556617736816, 4.196167945861816, 0.08000000566244125, 0.01600000075995922, 1.040000081062317, 0.0, 0.0, 0.0, 0.0, 0.0, 1.613351155125681E9, 2021-02-14 20:05:55.125
73.0, 5.187241077423096, 13.34022331237793, 13.201847076416016, 15.965632438659668, 0.08000000566244125, 0.01600000075995922, 1.040000081062317, 0.0, 0.0, 0.0, 0.0, 0.0, 1.613351155125681E9, 2021-02-14 20:05:55.125
74.0, 10.01919174194336, 16.242385864257812, 26.007265090942383, 30.794336318969727, 0.08000000566244125, 0.01600000075995922, 1.040000081062317, 0.0, 0.0, 0.0, 0.0, 0.0, 1.613351155139284E9, 2021-02-14 20:05:55.139
74.0, 1.73905348777771, 3.3023316860198975, 3.698760986328125, 11.649787902832031, 0.08000000566244125, 0.01600000075995922, 1.040000081062317, 0.0, 0.0, 0.0, 0.0, 0.0, 1.613351155139284E9, 2021-02-14 20:05:55.139
75.0, 7.730373382568359, 13.691773414611816, 12.981192588806152, 20.004724502563477, 0.08000000566244125, 0.01600000075995922, 1.040000081062317, 0.0, 0.0, 0.0, 0.0, 0.0, 1.613351155171333E9, 2021-02-14 20:05:55.171
75.0, 12.438907623291016, 16.668733596801758, 13.976006507873535, 30.603601455688477, 0.08000000566244125, 0.01600000075995922, 1.040000081062317, 0.0, 0.0, 0.0, 0.0, 0.0, 1.613351155171333E9, 2021-02-14 20:05:55.171
76.0, 8.440954208374023, 6.167095184326172, 11.99385929107666, 21.612882614135742, 0.08000000566244125, 0.01600000075995922, 1.040000081062317, 0.0, 0.0, 0.0, 0.0, 0.0, 1.613351155172089E9, 2021-02-14 20:05:55.172
76.0, 4.730973243713379, 1.552058458328247, 3.5753443241119385, 8.60925006866455, 0.08000000566244125, 0.01600000075995922, 1.040000081062317, 0.0, 0.0, 0.0, 0.0, 0.0, 1.613351155172089E9, 2021-02-14 20:05:55.172
77.0, 7.752812385559082, 16.37702178955078, 16.904348373413086, 24.619760513305664, 0.08000000566244125, 0.01600000075995922, 1.040000081062317, 0.0, 0.0, 0.0, 0.0, 0.0, 1.613351155172814E9, 2021-02-14 20:05:55.172
77.0, 9.458207130432129, 21.568002700805664, 26.44109344482422, 34.8895263671875, 0.08000000566244125, 0.01600000075995922, 1.040000081062317, 0.0, 0.0, 0.0, 0.0, 0.0, 1.613351155172814E9, 2021-02-14 20:05:55.172
78.0, 2.2701191902160645, 1.1593689918518066, -3.4182684421539307, 6.642062187194824, 0.08000000566244125, 0.01600000075995922, 1.040000081062317, 0.0, 0.0, 0.0, 0.0, 0.0, 1.61335115517354E9, 2021-02-14 20:05:55.173
78.0, 6.926294803619385, 15.011958122253418, 11.010265350341797, 20.004724502563477, 0.08000000566244125, 0.01600000075995922, 1.040000081062317, 0.0, 0.0, 0.0, 0.0, 0.0, 1.61335115517354E9, 2021-02-14 20:05:55.173
79.0, 13.164447784423828, 23.325756072998047, 24.51130485534668, 35.98905563354492, 0.08000000566244125, 0.01600000075995922, 1.040000081062317, 0.0, 0.0, 0.0, 0.0, 0.0, 1.613351155184325E9, 2021-02-14 20:05:55.184
79.0, 6.769218921661377, 8.156722068786621, 5.815544605255127, 2.8124048709869385, 0.08000000566244125, 0.01600000075995922, 1.040000081062317, 0.0, 0.0, 0.0, 0.0, 0.0, 1.613351155184325E9, 2021-02-14 20:05:55.184
80.0, 7.6219162940979, 13.070950508117676, 12.603463172912598, 15.49814510345459, 0.08000000566244125, 0.01600000075995922, 1.040000081062317, 0.0, 0.0, 0.0, 0.0, 0.0, 1.613351155199253E9, 2021-02-14 20:05:55.199
80.0, 13.276644706726074, 14.813743591308594, 21.728818893432617, 27.342409133911133, 0.08000000566244125, 0.01600000075995922, 1.040000081062317, 0.0, 0.0, 0.0, 0.0, 0.0, 1.613351155199253E9, 2021-02-14 20:05:55.199
81.0, 3.34721040725708, 10.46798038482666, 10.9803466796875, 20.73026466369629, 0.08000000566244125, 0.01600000075995922, 1.040000081062317, 0.0, 0.0, 0.0, 0.0, 0.0, 1.613351155214973E9, 2021-02-14 20:05:55.214
81.0, 1.7839323282241821, 6.862716197967529, 1.2229472398757935, 7.696713924407959, 0.08000000566244125, 0.01600000075995922, 1.040000081062317, 0.0, 0.0, 0.0, 0.0, 0.0, 1.613351155214973E9, 2021-02-14 20:05:55.214
82.0, 6.245633125305176, 12.31549072265625, 13.474859237670898, 23.232257843017578, 0.08000000566244125, 0.01600000075995922, 1.040000081062317, 0.0, 0.0, 0.0, 0.0, 0.0, 1.613351155215722E9, 2021-02-14 20:05:55.215
82.0, 8.485833168029785, 16.75849151611328, 22.52541732788086, 25.304162979125977, 0.08000000566244125, 0.01600000075995922, 1.040000081062317, 0.0, 0.0, 0.0, 0.0, 0.0, 1.613351155215722E9, 2021-02-14 20:05:55.215
83.0, 3.4407079219818115, 1.020992636680603, -3.66884183883667, 9.458207130432129, 0.08000000566244125, 0.01600000075995922, 1.040000081062317, 0.0, 0.0, 0.0, 0.0, 0.0, 1.613351155229245E9, 2021-02-14 20:05:55.229
83.0, 7.464840412139893, 14.477152824401855, 12.19581413269043, 22.921846389770508, 0.08000000566244125, 0.01600000075995922, 1.040000081062317, 0.0, 0.0, 0.0, 0.0, 0.0, 1.613351155229245E9, 2021-02-14 20:05:55.229
84.0, 11.324417114257812, 22.065410614013672, 26.815082550048828, 35.07652282714844, 0.08000000566244125, 0.01600000075995922, 1.040000081062317, 0.0, 0.0, 0.0, 0.0, 0.0, 1.613351155244984E9, 2021-02-14 20:05:55.244
84.0, 0.9798538088798523, 0.5161061882972717, 3.0367987155914307, 5.486433029174805, 0.08000000566244125, 0.01600000075995922, 1.040000081062317, 0.0, 0.0, 0.0, 0.0, 0.0, 1.613351155244984E9, 2021-02-14 20:05:55.244
85.0, 9.188934326171875, 10.127649307250977, 13.426240921020508, 8.560630798339844, 0.08000000566244125, 0.01600000075995922, 1.040000081062317, 0.0, 0.0, 0.0, 0.0, 0.0, 1.613351155245727E9, 2021-02-14 20:05:55.245
85.0, 12.356629371643066, 16.743532180786133, 21.893373489379883, 25.319122314453125, 0.08000000566244125, 0.01600000075995922, 1.040000081062317, 0.0, 0.0, 0.0, 0.0, 0.0, 1.613351155245727E9, 2021-02-14 20:05:55.245
86.0, 4.888049125671387, 11.466533660888672, 11.036444664001465, 21.59792137145996, 0.08000000566244125, 0.01600000075995922, 1.040000081062317, 0.0, 0.0, 0.0, 0.0, 0.0, 1.61335115525928E9, 2021-02-14 20:05:55.259
86.0, 2.419715166091919, 8.05200481414795, 0.46748748421669006, 12.895174980163574, 0.08000000566244125, 0.01600000075995922, 1.040000081062317, 0.0, 0.0, 0.0, 0.0, 0.0, 1.61335115525928E9, 2021-02-14 20:05:55.259
87.0, 9.705039978027344, 17.143701553344727, 16.911827087402344, 24.23455238342285, 0.08000000566244125, 0.01600000075995922, 1.040000081062317, 0.0, 0.0, 0.0, 0.0, 0.0, 1.613351155274973E9, 2021-02-14 20:05:55.274
87.0, 9.368449211120605, 23.942838668823242, 22.181346893310547, 33.21031188964844, 0.08000000566244125, 0.01600000075995922, 1.040000081062317, 0.0, 0.0, 0.0, 0.0, 0.0, 1.613351155274973E9, 2021-02-14 20:05:55.274
88.0, 4.600077152252197, 0.254313200712204, -1.2603462934494019, 6.245633125305176, 0.08000000566244125, 0.01600000075995922, 1.040000081062317, 0.0, 0.0, 0.0, 0.0, 0.0, 1.613351155275693E9, 2021-02-14 20:05:55.275
88.0, 8.938361167907715, 12.408987998962402, 16.627595901489258, 20.004724502563477, 0.08000000566244125, 0.01600000075995922, 1.040000081062317, 0.0, 0.0, 0.0, 0.0, 0.0, 1.613351155275693E9, 2021-02-14 20:05:55.275
89.0, 10.957906723022461, 15.513105392456055, 25.435060501098633, 34.440738677978516, 0.08000000566244125, 0.01600000075995922, 1.040000081062317, 0.0, 0.0, 0.0, 0.0, 0.0, 1.613351155289266E9, 2021-02-14 20:05:55.289
89.0, 2.064424753189087, -0.23935359716415405, -2.371096611022949, 6.1072564125061035, 0.08000000566244125, 0.01600000075995922, 1.040000081062317, 0.0, 0.0, 0.0, 0.0, 0.0, 1.613351155289266E9, 2021-02-14 20:05:55.289
90.0, 8.235260009765625, 12.214512825012207, 10.404401779174805, 19.219345092773438, 0.08000000566244125, 0.01600000075995922, 1.040000081062317, 0.0, 0.0, 0.0, 0.0, 0.0, 1.613351155304953E9, 2021-02-14 20:05:55.304
90.0, 9.929434776306152, 16.975406646728516, 17.158660888671875, 23.602508544921875, 0.08000000566244125, 0.01600000075995922, 1.040000081062317, 0.0, 0.0, 0.0, 0.0, 0.0, 1.613351155304953E9, 2021-02-14 20:05:55.304
91.0, 5.1797614097595215, 9.906994819641113, 13.680554389953613, 22.132728576660156, 0.08000000566244125, 0.01600000075995922, 1.040000081062317, 0.0, 0.0, 0.0, 0.0, 0.0, 1.613351155305692E9, 2021-02-14 20:05:55.305
91.0, -3.283632278442383, 9.084217071533203, 1.3201847076416016, 6.922554969787598, 0.08000000566244125, 0.01600000075995922, 1.040000081062317, 0.0, 0.0, 0.0, 0.0, 0.0, 1.613351155305692E9, 2021-02-14 20:05:55.305
92.0, 11.500192642211914, 18.486326217651367, 16.238645553588867, 25.143346786499023, 0.08000000566244125, 0.01600000075995922, 1.040000081062317, 0.0, 0.0, 0.0, 0.0, 0.0, 1.613351155319303E9, 2021-02-14 20:05:55.319
92.0, 14.16300106048584, 21.837276458740234, 23.112581253051758, 31.557275772094727, 0.08000000566244125, 0.01600000075995922, 1.040000081062317, 0.0, 0.0, 0.0, 0.0, 0.0, 1.613351155319303E9, 2021-02-14 20:05:55.319
93.0, 5.579930782318115, 2.8423240184783936, -1.0808310508728027, 4.027872085571289, 0.08000000566244125, 0.01600000075995922, 1.040000081062317, 0.0, 0.0, 0.0, 0.0, 0.0, 1.613351155334914E9, 2021-02-14 20:05:55.334
93.0, 5.7257866859436035, 13.026071548461914, 13.059730529785156, 20.154321670532227, 0.08000000566244125, 0.01600000075995922, 1.040000081062317, 0.0, 0.0, 0.0, 0.0, 0.0, 1.613351155334914E9, 2021-02-14 20:05:55.334
94.0, 8.429734230041504, 17.16240119934082, 26.938499450683594, 28.486818313598633, 0.08000000566244125, 0.01600000075995922, 1.040000081062317, 0.0, 0.0, 0.0, 0.0, 0.0, 1.613351155335723E9, 2021-02-14 20:05:55.335
94.0, 1.4922200441360474, -1.6006771326065063, -0.07479800283908844, 4.349503517150879, 0.08000000566244125, 0.01600000075995922, 1.040000081062317, 0.0, 0.0, 0.0, 0.0, 0.0, 1.613351155335723E9, 2021-02-14 20:05:55.335
95.0, 3.425748348236084, 10.052850723266602, 14.200400352478027, 15.400908470153809, 0.08000000566244125, 0.01600000075995922, 1.040000081062317, 0.0, 0.0, 0.0, 0.0, 0.0, 1.613351155349326E9, 2021-02-14 20:05:55.349
95.0, 12.62590217590332, 18.142253875732422, 22.746070861816406, 30.727018356323242, 0.08000000566244125, 0.01600000075995922, 1.040000081062317, 0.0, 0.0, 0.0, 0.0, 0.0, 1.613351155349326E9, 2021-02-14 20:05:55.349
96.0, 5.965140342712402, 7.102069854736328, 9.731219291687012, 15.644001960754395, 0.08000000566244125, 0.01600000075995922, 1.040000081062317, 0.0, 0.0, 0.0, 0.0, 0.0, 1.613351155364913E9, 2021-02-14 20:05:55.364
96.0, 3.0293190479278564, 4.951627731323242, 0.44878798723220825, 10.572697639465332, 0.08000000566244125, 0.01600000075995922, 1.040000081062317, 0.0, 0.0, 0.0, 0.0, 0.0, 1.613351155364913E9, 2021-02-14 20:05:55.364
97.0, 9.028118133544922, 16.58271598815918, 14.155521392822266, 21.156614303588867, 0.08000000566244125, 0.01600000075995922, 1.040000081062317, 0.0, 0.0, 0.0, 0.0, 0.0, 1.613351155365698E9, 2021-02-14 20:05:55.365
97.0, 14.09194278717041, 18.32925033569336, 21.07059669494629, 29.70976448059082, 0.08000000566244125, 0.01600000075995922, 1.040000081062317, 0.0, 0.0, 0.0, 0.0, 0.0, 1.613351155365698E9, 2021-02-14 20:05:55.365
98.0, 2.0532050132751465, 3.893235921859741, -1.1892881393432617, 2.861023426055908, 0.08000000566244125, 0.01600000075995922, 1.040000081062317, 0.0, 0.0, 0.0, 0.0, 0.0, 1.613351155396374E9, 2021-02-14 20:05:55.396
98.0, 6.88515567779541, 13.583316802978516, 13.815190315246582, 21.530603408813477, 0.08000000566244125, 0.01600000075995922, 1.040000081062317, 0.0, 0.0, 0.0, 0.0, 0.0, 1.613351155396374E9, 2021-02-14 20:05:55.396
99.0, 15.011958122253418, 22.948026657104492, 28.789749145507812, 33.54690170288086, 0.08000000566244125, 0.01600000075995922, 1.040000081062317, 0.0, 0.0, 0.0, 0.0, 0.0, 1.613351155397089E9, 2021-02-14 20:05:55.397
99.0, 2.5393919944763184, 2.6029703617095947, -0.9349749684333801, 8.556891441345215, 0.08000000566244125, 0.01600000075995922, 1.040000081062317, 0.0, 0.0, 0.0, 0.0, 0.0, 1.613351155397089E9, 2021-02-14 20:05:55.397
100.0, 5.220900535583496, 11.776945114135742, 10.662454605102539, 15.124155044555664, 0.08000000566244125, 0.01600000075995922, 1.040000081062317, 0.0, 0.0, 0.0, 0.0, 0.0, 1.613351155397877E9, 2021-02-14 20:05:55.397
100.0, 8.500792503356934, 13.175667762756348, 18.841615676879883, 24.716999053955078, 0.08000000566244125, 0.01600000075995922, 1.040000081062317, 0.0, 0.0, 0.0, 0.0, 0.0, 1.613351155397877E9, 2021-02-14 20:05:55.397
0.0, 16.30035400390625, 14.41357421875, 18.241361618041992, 18.626571655273438, 0.08000000566244125, 0.01600000075995922, 1.040000081062317, 0.0, 0.0, 0.0, 0.0, 0.0, 1.613351155398568E9, 2021-02-14 20:05:55.398
1.0, 9.314220428466797, 11.66100788116455, 7.249795913696289, 12.380938529968262, 0.08000000566244125, 0.01600000075995922, 1.040000081062317, 0.0, 0.0, 0.0, 0.0, 0.0, 1.613351155409235E9, 2021-02-14 20:05:55.409
1.0, 18.200223922729492, 20.07952308654785, 19.161376953125, 22.923717498779297, 0.08000000566244125, 0.01600000075995922, 1.040000081062317, 0.0, 0.0, 0.0, 0.0, 0.0, 1.613351155409235E9, 2021-02-14 20:05:55.409
2.0, 17.306386947631836, 26.02970314025879, 28.7916202545166, 31.49930763244629, 0.08000000566244125, 0.01600000075995922, 1.040000081062317, 0.0, 0.0, 0.0, 0.0, 0.0, 1.613351155424306E9, 2021-02-14 20:05:55.424
2.0, 10.615706443786621, 8.93462085723877, 2.429064989089966, 4.205517292022705, 0.08000000566244125, 0.01600000075995922, 1.040000081062317, 0.0, 0.0, 0.0, 0.0, 0.0, 1.613351155424306E9, 2021-02-14 20:05:55.424
3.0, 17.07077407836914, 22.544116973876953, 16.756622314453125, 19.976675033569336, 0.08000000566244125, 0.01600000075995922, 1.040000081062317, 0.0, 0.0, 0.0, 0.0, 0.0, 1.61335115543999E9, 2021-02-14 20:05:55.439
3.0, 22.725502014160156, 35.73100280761719, 27.07500648498535, 31.727441787719727, 0.08000000566244125, 0.01600000075995922, 1.040000081062317, 0.0, 0.0, 0.0, 0.0, 0.0, 1.61335115543999E9, 2021-02-14 20:05:55.439
4.0, 9.370319366455078, 12.450126647949219, 3.1284263134002686, 3.629572868347168, 0.08000000566244125, 0.01600000075995922, 1.040000081062317, 0.0, 0.0, 0.0, 0.0, 0.0, 1.613351155440707E9, 2021-02-14 20:05:55.440
4.0, 14.26210880279541, 22.600215911865234, 17.328826904296875, 16.446210861206055, 0.08000000566244125, 0.01600000075995922, 1.040000081062317, 0.0, 0.0, 0.0, 0.0, 0.0, 1.613351155440707E9, 2021-02-14 20:05:55.440
5.0, 19.23991584777832, 25.38644027709961, 22.658184051513672, 25.74734115600586, 0.08000000566244125, 0.01600000075995922, 1.040000081062317, 0.0, 0.0, 0.0, 0.0, 0.0, 1.613351155454206E9, 2021-02-14 20:05:55.454
5.0, 15.327980041503906, 22.544116973876953, 22.276714324951172, 18.15160369873047, 0.08000000566244125, 0.01600000075995922, 1.040000081062317, 0.0, 0.0, 0.0, 0.0, 0.0, 1.613351155454206E9, 2021-02-14 20:05:55.454
6.0, 11.812474250793457, 12.738099098205566, 5.967010498046875, 7.126379489898682, 0.08000000566244125, 0.01600000075995922, 1.040000081062317, 0.0, 0.0, 0.0, 0.0, 0.0, 1.613351155470002E9, 2021-02-14 20:05:55.470
6.0, 13.895598411560059, 20.195459365844727, 17.61305809020996, 20.33570671081543, 0.08000000566244125, 0.01600000075995922, 1.040000081062317, 0.0, 0.0, 0.0, 0.0, 0.0, 1.613351155470002E9, 2021-02-14 20:05:55.470
7.0, 19.195035934448242, 31.426380157470703, 26.790773391723633, 28.2755126953125, 0.08000000566244125, 0.01600000075995922, 1.040000081062317, 0.0, 0.0, 0.0, 0.0, 0.0, 1.613351155470719E9, 2021-02-14 20:05:55.470
7.0, 6.520515441894531, 8.74388599395752, 1.3669334650039673, 2.896552562713623, 0.08000000566244125, 0.01600000075995922, 1.040000081062317, 0.0, 0.0, 0.0, 0.0, 0.0, 1.613351155470719E9, 2021-02-14 20:05:55.470
8.0, 16.18067741394043, 23.684785842895508, 16.266695022583008, 21.678329467773438, 0.08000000566244125, 0.01600000075995922, 1.040000081062317, 0.0, 0.0, 0.0, 0.0, 0.0, 1.613351155484233E9, 2021-02-14 20:05:55.484
8.0, 19.85325813293457, 31.617115020751953, 24.853506088256836, 36.15174102783203, 0.08000000566244125, 0.01600000075995922, 1.040000081062317, 0.0, 0.0, 0.0, 0.0, 0.0, 1.613351155484233E9, 2021-02-14 20:05:55.484
9.0, 8.427864074707031, 2.9171218872070312, 2.0064563751220703, 4.800161361694336, 0.08000000566244125, 0.01600000075995922, 1.040000081062317, 0.0, 0.0, 0.0, 0.0, 0.0, 1.613351155500208E9, 2021-02-14 20:05:55.500
9.0, 15.52619457244873, 20.281476974487305, 16.36393165588379, 10.24919605255127, 0.08000000566244125, 0.01600000075995922, 1.040000081062317, 0.0, 0.0, 0.0, 0.0, 0.0, 1.613351155500208E9, 2021-02-14 20:05:55.500
10.0, 21.04254722595215, 28.845848083496094, 22.059799194335938, 26.401823043823242, 0.08000000566244125, 0.01600000075995922, 1.040000081062317, 0.0, 0.0, 0.0, 0.0, 0.0, 1.613351155500712E9, 2021-02-14 20:05:55.500
10.0, 18.76494789123535, 23.714706420898438, 21.685810089111328, 22.908756256103516, 0.08000000566244125, 0.01600000075995922, 1.040000081062317, 0.0, 0.0, 0.0, 0.0, 0.0, 1.613351155500712E9, 2021-02-14 20:05:55.500
11.0, 15.78798770904541, 16.268564224243164, 12.351019859313965, 6.0941667556762695, 0.08000000566244125, 0.01600000075995922, 1.040000081062317, 0.0, 0.0, 0.0, 0.0, 0.0, 1.613351155514247E9, 2021-02-14 20:05:55.514
11.0, 15.754328727722168, 24.8067569732666, 17.433544158935547, 21.00514793395996, 0.08000000566244125, 0.01600000075995922, 1.040000081062317, 0.0, 0.0, 0.0, 0.0, 0.0, 1.613351155514247E9, 2021-02-14 20:05:55.514
12.0, 20.76579475402832, 27.155412673950195, 28.645763397216797, 28.492427825927734, 0.08000000566244125, 0.01600000075995922, 1.040000081062317, 0.0, 0.0, 0.0, 0.0, 0.0, 1.613351155529991E9, 2021-02-14 20:05:55.529
12.0, 17.23158836364746, 12.04247760772705, 4.067141056060791, 3.465017318725586, 0.08000000566244125, 0.01600000075995922, 1.040000081062317, 0.0, 0.0, 0.0, 0.0, 0.0, 1.613351155529991E9, 2021-02-14 20:05:55.529
13.0, 10.088379859924316, 23.673566818237305, 16.902477264404297, 20.750835418701172, 0.08000000566244125, 0.01600000075995922, 1.040000081062317, 0.0, 0.0, 0.0, 0.0, 0.0, 1.613351155530715E9, 2021-02-14 20:05:55.530
13.0, 19.7074031829834, 29.055282592773438, 31.663862228393555, 30.137983322143555, 0.08000000566244125, 0.01600000075995922, 1.040000081062317, 0.0, 0.0, 0.0, 0.0, 0.0, 1.613351155530715E9, 2021-02-14 20:05:55.530
14.0, 7.919238090515137, 11.619869232177734, 9.299261093139648, 2.7544362545013428, 0.08000000566244125, 0.01600000075995922, 1.040000081062317, 0.0, 0.0, 0.0, 0.0, 0.0, 1.613351155544254E9, 2021-02-14 20:05:55.544
14.0, 17.343786239624023, 19.668134689331055, 15.73936939239502, 20.477821350097656, 0.08000000566244125, 0.01600000075995922, 1.040000081062317, 0.0, 0.0, 0.0, 0.0, 0.0, 1.613351155544254E9, 2021-02-14 20:05:55.544
15.0, 20.806934356689453, 29.567649841308594, 25.926856994628906, 28.41762924194336, 0.08000000566244125, 0.01600000075995922, 1.040000081062317, 0.0, 0.0, 0.0, 0.0, 0.0, 1.613351155559947E9, 2021-02-14 20:05:55.559
15.0, 15.974982261657715, 20.741485595703125, 18.25632095336914, 24.038206100463867, 0.08000000566244125, 0.01600000075995922, 1.040000081062317, 0.0, 0.0, 0.0, 0.0, 0.0, 1.613351155559947E9, 2021-02-14 20:05:55.559
16.0, 12.253782272338867, 8.29135799407959, 5.2751288414001465, 14.718376159667969, 0.08000000566244125, 0.01600000075995922, 1.040000081062317, 0.0, 0.0, 0.0, 0.0, 0.0, 1.613351155560719E9, 2021-02-14 20:05:55.560
16.0, 15.922623634338379, 19.76163101196289, 19.404470443725586, 24.4608154296875, 0.08000000566244125, 0.01600000075995922, 1.040000081062317, 0.0, 0.0, 0.0, 0.0, 0.0, 1.613351155560719E9, 2021-02-14 20:05:55.560
17.0, 24.457075119018555, 31.198246002197266, 28.08477783203125, 28.286733627319336, 0.08000000566244125, 0.01600000075995922, 1.040000081062317, 0.0, 0.0, 0.0, 0.0, 0.0, 1.613351155574245E9, 2021-02-14 20:05:55.574
17.0, 8.124932289123535, 11.664748191833496, 1.2509965896606445, 3.524855613708496, 0.08000000566244125, 0.01600000075995922, 1.040000081062317, 0.0, 0.0, 0.0, 0.0, 0.0, 1.613351155574245E9, 2021-02-14 20:05:55.574
18.0, 15.571073532104492, 23.957799911499023, 19.045440673828125, 18.54803466796875, 0.08000000566244125, 0.01600000075995922, 1.040000081062317, 0.0, 0.0, 0.0, 0.0, 0.0, 1.613351155590006E9, 2021-02-14 20:05:55.590
18.0, 19.490488052368164, 28.797229766845703, 22.95737648010254, 27.755666732788086, 0.08000000566244125, 0.01600000075995922, 1.040000081062317, 0.0, 0.0, 0.0, 0.0, 0.0, 1.613351155590006E9, 2021-02-14 20:05:55.590
19.0, 11.935891151428223, 10.942947387695312, 4.669265270233154, 5.211550712585449, 0.08000000566244125, 0.01600000075995922, 1.040000081062317, 0.0, 0.0, 0.0, 0.0, 0.0, 1.613351155590761E9, 2021-02-14 20:05:55.590
19.0, 12.193943977355957, 19.398860931396484, 16.595806121826172, 15.71692943572998, 0.08000000566244125, 0.01600000075995922, 1.040000081062317, 0.0, 0.0, 0.0, 0.0, 0.0, 1.613351155590761E9, 2021-02-14 20:05:55.590
20.0, 19.355852127075195, 26.433612823486328, 25.638883590698242, 32.08647155761719, 0.08000000566244125, 0.01600000075995922, 1.040000081062317, 0.0, 0.0, 0.0, 0.0, 0.0, 1.613351155604311E9, 2021-02-14 20:05:55.604
20.0, 13.74974250793457, 21.639060974121094, 17.553220748901367, 18.951942443847656, 0.08000000566244125, 0.01600000075995922, 1.040000081062317, 0.0, 0.0, 0.0, 0.0, 0.0, 1.613351155604311E9, 2021-02-14 20:05:55.604
21.0, 13.626325607299805, 13.052250862121582, 9.362839698791504, 4.299015045166016, 0.08000000566244125, 0.01600000075995922, 1.040000081062317, 0.0, 0.0, 0.0, 0.0, 0.0, 1.613351155620172E9, 2021-02-14 20:05:55.620
21.0, 17.76265525817871, 22.9704647064209, 19.165117263793945, 22.35525131225586, 0.08000000566244125, 0.01600000075995922, 1.040000081062317, 0.0, 0.0, 0.0, 0.0, 0.0, 1.613351155620172E9, 2021-02-14 20:05:55.620
22.0, 19.782201766967773, 26.343854904174805, 25.642623901367188, 26.824432373046875, 0.08000000566244125, 0.01600000075995922, 1.040000081062317, 0.0, 0.0, 0.0, 0.0, 0.0, 1.613351155620717E9, 2021-02-14 20:05:55.620
22.0, 9.0112886428833, 10.505378723144531, 1.538968801498413, 5.189111232757568, 0.08000000566244125, 0.01600000075995922, 1.040000081062317, 0.0, 0.0, 0.0, 0.0, 0.0, 1.613351155620717E9, 2021-02-14 20:05:55.620
23.0, 17.313867568969727, 24.256990432739258, 19.142677307128906, 19.943016052246094, 0.08000000566244125, 0.01600000075995922, 1.040000081062317, 0.0, 0.0, 0.0, 0.0, 0.0, 1.613351155650436E9, 2021-02-14 20:05:55.650
23.0, 18.892105102539062, 29.833181381225586, 28.64202308654785, 33.67966842651367, 0.08000000566244125, 0.01600000075995922, 1.040000081062317, 0.0, 0.0, 0.0, 0.0, 0.0, 1.613351155650436E9, 2021-02-14 20:05:55.650
24.0, 7.373212814331055, 13.347702980041504, 4.624386310577393, 3.954944133758545, 0.08000000566244125, 0.01600000075995922, 1.040000081062317, 0.0, 0.0, 0.0, 0.0, 0.0, 1.613351155651096E9, 2021-02-14 20:05:55.651
24.0, 9.983662605285645, 20.932220458984375, 15.720669746398926, 13.151358604431152, 0.08000000566244125, 0.01600000075995922, 1.040000081062317, 0.0, 0.0, 0.0, 0.0, 0.0, 1.613351155651096E9, 2021-02-14 20:05:55.651
25.0, 19.221216201782227, 28.943086624145508, 23.997068405151367, 24.711389541625977, 0.08000000566244125, 0.01600000075995922, 1.040000081062317, 0.0, 0.0, 0.0, 0.0, 0.0, 1.61335115566496E9, 2021-02-14 20:05:55.664
25.0, 16.46491050720215, 23.54266929626465, 12.72874927520752, 19.221216201782227, 0.08000000566244125, 0.01600000075995922, 1.040000081062317, 0.0, 0.0, 0.0, 0.0, 0.0, 1.61335115566496E9, 2021-02-14 20:05:55.664
26.0, 13.49168872833252, 16.126447677612305, 8.465263366699219, 6.984262943267822, 0.08000000566244125, 0.01600000075995922, 1.040000081062317, 0.0, 0.0, 0.0, 0.0, 0.0, 1.613351155665731E9, 2021-02-14 20:05:55.665
26.0, 13.405671119689941, 25.37148094177246, 20.036514282226562, 20.204809188842773, 0.08000000566244125, 0.01600000075995922, 1.040000081062317, 0.0, 0.0, 0.0, 0.0, 0.0, 1.613351155665731E9, 2021-02-14 20:05:55.665
27.0, 19.913097381591797, 28.097867965698242, 24.726348876953125, 33.9452018737793, 0.08000000566244125, 0.01600000075995922, 1.040000081062317, 0.0, 0.0, 0.0, 0.0, 0.0, 1.613351155679967E9, 2021-02-14 20:05:55.679
27.0, 13.173797607421875, 8.022085189819336, 2.2495498657226562, 4.8413004875183105, 0.08000000566244125, 0.01600000075995922, 1.040000081062317, 0.0, 0.0, 0.0, 0.0, 0.0, 1.613351155679967E9, 2021-02-14 20:05:55.679
28.0, 18.443317413330078, 17.98891830444336, 16.678083419799805, 22.04483985900879, 0.08000000566244125, 0.01600000075995922, 1.040000081062317, 0.0, 0.0, 0.0, 0.0, 0.0, 1.613351155680672E9, 2021-02-14 20:05:55.680
28.0, 18.40591812133789, 27.813636779785156, 32.76339340209961, 29.90237045288086, 0.08000000566244125, 0.01600000075995922, 1.040000081062317, 0.0, 0.0, 0.0, 0.0, 0.0, 1.613351155680672E9, 2021-02-14 20:05:55.680
29.0, 11.408564567565918, 8.818683624267578, 7.874359130859375, 5.028295516967773, 0.08000000566244125, 0.01600000075995922, 1.040000081062317, 0.0, 0.0, 0.0, 0.0, 0.0, 1.613351155694316E9, 2021-02-14 20:05:55.694
29.0, 17.044593811035156, 24.586101531982422, 14.550081253051758, 15.552373886108398, 0.08000000566244125, 0.01600000075995922, 1.040000081062317, 0.0, 0.0, 0.0, 0.0, 0.0, 1.613351155694316E9, 2021-02-14 20:05:55.694
30.0, 16.607025146484375, 22.5889949798584, 22.358991622924805, 26.51028060913086, 0.08000000566244125, 0.01600000075995922, 1.040000081062317, 0.0, 0.0, 0.0, 0.0, 0.0, 1.613351155709908E9, 2021-02-14 20:05:55.709
30.0, 14.542600631713867, 21.02571678161621, 17.355005264282227, 17.96834945678711, 0.08000000566244125, 0.01600000075995922, 1.040000081062317, 0.0, 0.0, 0.0, 0.0, 0.0, 1.613351155709908E9, 2021-02-14 20:05:55.709
31.0, 13.061600685119629, 13.85258960723877, 9.261861801147461, 14.5164213180542, 0.08000000566244125, 0.01600000075995922, 1.040000081062317, 0.0, 0.0, 0.0, 0.0, 0.0, 1.613351155710709E9, 2021-02-14 20:05:55.710
31.0, 22.1719970703125, 22.402000427246094, 18.245101928710938, 25.403270721435547, 0.08000000566244125, 0.01600000075995922, 1.040000081062317, 0.0, 0.0, 0.0, 0.0, 0.0, 1.613351155710709E9, 2021-02-14 20:05:55.710
32.0, 18.1815242767334, 28.296083450317383, 27.22460174560547, 29.479761123657227, 0.08000000566244125, 0.01600000075995922, 1.040000081062317, 0.0, 0.0, 0.0, 0.0, 0.0, 1.613351155724292E9, 2021-02-14 20:05:55.724
32.0, 11.247749328613281, 13.037291526794434, 0.31228163838386536, 4.770242214202881, 0.08000000566244125, 0.01600000075995922, 1.040000081062317, 0.0, 0.0, 0.0, 0.0, 0.0, 1.613351155724292E9, 2021-02-14 20:05:55.724
33.0, 17.24654769897461, 23.411773681640625, 21.749387741088867, 16.973535537719727, 0.08000000566244125, 0.01600000075995922, 1.040000081062317, 0.0, 0.0, 0.0, 0.0, 0.0, 1.613351155739959E9, 2021-02-14 20:05:55.739
33.0, 19.370811462402344, 32.84754180908203, 28.30543327331543, 33.97138214111328, 0.08000000566244125, 0.01600000075995922, 1.040000081062317, 0.0, 0.0, 0.0, 0.0, 0.0, 1.613351155739959E9, 2021-02-14 20:05:55.739
34.0, 14.931550979614258, 14.641708374023438, 8.106233596801758, 6.3073410987854, 0.08000000566244125, 0.01600000075995922, 1.040000081062317, 0.0, 0.0, 0.0, 0.0, 0.0, 1.613351155740859E9, 2021-02-14 20:05:55.740
34.0, 15.040007591247559, 20.61058807373047, 14.968949317932129, 14.419184684753418, 0.08000000566244125, 0.01600000075995922, 1.040000081062317, 0.0, 0.0, 0.0, 0.0, 0.0, 1.613351155740859E9, 2021-02-14 20:05:55.740
35.0, 16.88751792907715, 25.68189239501953, 23.211688995361328, 25.751081466674805, 0.08000000566244125, 0.01600000075995922, 1.040000081062317, 0.0, 0.0, 0.0, 0.0, 0.0, 1.613351155754286E9, 2021-02-14 20:05:55.754
35.0, 10.918638229370117, 19.095930099487305, 16.58458709716797, 18.439577102661133, 0.08000000566244125, 0.01600000075995922, 1.040000081062317, 0.0, 0.0, 0.0, 0.0, 0.0, 1.613351155754286E9, 2021-02-14 20:05:55.754
36.0, 8.614859580993652, 13.85258960723877, 6.89076566696167, 4.990896701812744, 0.08000000566244125, 0.01600000075995922, 1.040000081062317, 0.0, 0.0, 0.0, 0.0, 0.0, 1.613351155769958E9, 2021-02-14 20:05:55.769
36.0, 16.281654357910156, 21.994352340698242, 19.198776245117188, 23.039653778076172, 0.08000000566244125, 0.01600000075995922, 1.040000081062317, 0.0, 0.0, 0.0, 0.0, 0.0, 1.613351155769958E9, 2021-02-14 20:05:55.769
37.0, 17.51582145690918, 27.192811965942383, 23.06957244873047, 32.38192367553711, 0.08000000566244125, 0.01600000075995922, 1.040000081062317, 0.0, 0.0, 0.0, 0.0, 0.0, 1.613351155770654E9, 2021-02-14 20:05:55.770
37.0, 4.953497409820557, 8.392335891723633, 3.984863519668579, 8.480222702026367, 0.08000000566244125, 0.01600000075995922, 1.040000081062317, 0.0, 0.0, 0.0, 0.0, 0.0, 1.613351155770654E9, 2021-02-14 20:05:55.770
38.0, 14.404224395751953, 20.614328384399414, 18.70884895324707, 19.008041381835938, 0.08000000566244125, 0.01600000075995922, 1.040000081062317, 0.0, 0.0, 0.0, 0.0, 0.0, 1.613351155784233E9, 2021-02-14 20:05:55.784
38.0, 18.76494789123535, 30.195951461791992, 26.125070571899414, 32.886810302734375, 0.08000000566244125, 0.01600000075995922, 1.040000081062317, 0.0, 0.0, 0.0, 0.0, 0.0, 1.613351155784233E9, 2021-02-14 20:05:55.784
39.0, 16.502307891845703, 9.476906776428223, 5.432204723358154, -1.183678388595581, 0.08000000566244125, 0.01600000075995922, 1.040000081062317, 0.0, 0.0, 0.0, 0.0, 0.0, 1.613351155799906E9, 2021-02-14 20:05:55.799
39.0, 17.18297004699707, 17.899160385131836, 14.209750175476074, 16.99223518371582, 0.08000000566244125, 0.01600000075995922, 1.040000081062317, 0.0, 0.0, 0.0, 0.0, 0.0, 1.613351155799906E9, 2021-02-14 20:05:55.799
40.0, 21.760608673095703, 27.54810333251953, 25.75482177734375, 33.84422302246094, 0.08000000566244125, 0.01600000075995922, 1.040000081062317, 0.0, 0.0, 0.0, 0.0, 0.0, 1.613351155800712E9, 2021-02-14 20:05:55.800
40.0, 19.658784866333008, 22.521677017211914, 18.203962326049805, 19.845779418945312, 0.08000000566244125, 0.01600000075995922, 1.040000081062317, 0.0, 0.0, 0.0, 0.0, 0.0, 1.613351155800712E9, 2021-02-14 20:05:55.800
41.0, 12.818507194519043, 11.877922058105469, 11.760115623474121, 6.273682117462158, 0.08000000566244125, 0.01600000075995922, 1.040000081062317, 0.0, 0.0, 0.0, 0.0, 0.0, 1.613351155814189E9, 2021-02-14 20:05:55.814
41.0, 13.510388374328613, 20.782623291015625, 19.920578002929688, 16.767841339111328, 0.08000000566244125, 0.01600000075995922, 1.040000081062317, 0.0, 0.0, 0.0, 0.0, 0.0, 1.613351155814189E9, 2021-02-14 20:05:55.814
42.0, 17.58687973022461, 29.317075729370117, 23.14811134338379, 24.382278442382812, 0.08000000566244125, 0.01600000075995922, 1.040000081062317, 0.0, 0.0, 0.0, 0.0, 0.0, 1.613351155829891E9, 2021-02-14 20:05:55.829
42.0, 8.5213623046875, 12.670781135559082, 6.561654567718506, 4.037221908569336, 0.08000000566244125, 0.01600000075995922, 1.040000081062317, 0.0, 0.0, 0.0, 0.0, 0.0, 1.613351155829891E9, 2021-02-14 20:05:55.829
43.0, 18.97812271118164, 22.84330940246582, 19.785940170288086, 22.755420684814453, 0.08000000566244125, 0.01600000075995922, 1.040000081062317, 0.0, 0.0, 0.0, 0.0, 0.0, 1.613351155830653E9, 2021-02-14 20:05:55.830
43.0, 18.323638916015625, 23.445432662963867, 29.18056869506836, 29.85749053955078, 0.08000000566244125, 0.01600000075995922, 1.040000081062317, 0.0, 0.0, 0.0, 0.0, 0.0, 1.613351155830653E9, 2021-02-14 20:05:55.830
44.0, 7.65370512008667, 10.78961181640625, 5.1105732917785645, 6.853366851806641, 0.08000000566244125, 0.01600000075995922, 1.040000081062317, 0.0, 0.0, 0.0, 0.0, 0.0, 1.613351155844245E9, 2021-02-14 20:05:55.844
44.0, 14.538861274719238, 16.616374969482422, 19.30349349975586, 15.735629081726074, 0.08000000566244125, 0.01600000075995922, 1.040000081062317, 0.0, 0.0, 0.0, 0.0, 0.0, 1.613351155844245E9, 2021-02-14 20:05:55.844
45.0, 19.871957778930664, 31.714351654052734, 25.27237319946289, 25.93059539794922, 0.08000000566244125, 0.01600000075995922, 1.040000081062317, 0.0, 0.0, 0.0, 0.0, 0.0, 1.613351155859866E9, 2021-02-14 20:05:55.859
45.0, 19.04170036315918, 21.186532974243164, 13.031681060791016, 22.119638442993164, 0.08000000566244125, 0.01600000075995922, 1.040000081062317, 0.0, 0.0, 0.0, 0.0, 0.0, 1.613351155859866E9, 2021-02-14 20:05:55.859
46.0, 13.271035194396973, 16.814590454101562, 7.440530776977539, 7.347033500671387, 0.08000000566244125, 0.01600000075995922, 1.040000081062317, 0.0, 0.0, 0.0, 0.0, 0.0, 1.613351155860612E9, 2021-02-14 20:05:55.860
46.0, 17.14183235168457, 27.151674270629883, 19.385770797729492, 25.29481315612793, 0.08000000566244125, 0.01600000075995922, 1.040000081062317, 0.0, 0.0, 0.0, 0.0, 0.0, 1.613351155860612E9, 2021-02-14 20:05:55.860
47.0, 16.663124084472656, 24.507564544677734, 28.93373680114746, 25.23123550415039, 0.08000000566244125, 0.01600000075995922, 1.040000081062317, 0.0, 0.0, 0.0, 0.0, 0.0, 1.613351155874233E9, 2021-02-14 20:05:55.874
47.0, 11.139291763305664, 7.879969120025635, 5.3835859298706055, 2.8292343616485596, 0.08000000566244125, 0.01600000075995922, 1.040000081062317, 0.0, 0.0, 0.0, 0.0, 0.0, 1.613351155874233E9, 2021-02-14 20:05:55.874
48.0, 18.177783966064453, 24.533742904663086, 19.17633628845215, 18.361038208007812, 0.08000000566244125, 0.01600000075995922, 1.040000081062317, 0.0, 0.0, 0.0, 0.0, 0.0, 1.61335115588991E9, 2021-02-14 20:05:55.889
48.0, 18.72380828857422, 32.22671890258789, 25.863277435302734, 28.967395782470703, 0.08000000566244125, 0.01600000075995922, 1.040000081062317, 0.0, 0.0, 0.0, 0.0, 0.0, 1.61335115588991E9, 2021-02-14 20:05:55.889
49.0, 8.663477897644043, 8.781285285949707, 4.5944671630859375, 7.601346492767334, 0.08000000566244125, 0.01600000075995922, 1.040000081062317, 0.0, 0.0, 0.0, 0.0, 0.0, 1.613351155890655E9, 2021-02-14 20:05:55.890
49.0, 10.888718605041504, 15.303670883178711, 10.544648170471191, 15.825387001037598, 0.08000000566244125, 0.01600000075995922, 1.040000081062317, 0.0, 0.0, 0.0, 0.0, 0.0, 1.613351155890655E9, 2021-02-14 20:05:55.890
50.0, 19.808380126953125, 23.460391998291016, 24.846025466918945, 27.968841552734375, 0.08000000566244125, 0.01600000075995922, 1.040000081062317, 0.0, 0.0, 0.0, 0.0, 0.0, 1.613351155904224E9, 2021-02-14 20:05:55.904
50.0, 13.05038070678711, 20.416114807128906, 13.308433532714844, 20.608718872070312, 0.08000000566244125, 0.01600000075995922, 1.040000081062317, 0.0, 0.0, 0.0, 0.0, 0.0, 1.613351155904224E9, 2021-02-14 20:05:55.904
51.0, 13.81332015991211, 14.738945960998535, 9.340399742126465, 7.347033500671387, 0.08000000566244125, 0.01600000075995922, 1.040000081062317, 0.0, 0.0, 0.0, 0.0, 0.0, 1.613351155919863E9, 2021-02-14 20:05:55.919
51.0, 20.515220642089844, 25.603355407714844, 18.892105102539062, 23.25282859802246, 0.08000000566244125, 0.01600000075995922, 1.040000081062317, 0.0, 0.0, 0.0, 0.0, 0.0, 1.613351155919863E9, 2021-02-14 20:05:55.919
52.0, 21.132305145263672, 28.868288040161133, 27.56867218017578, 28.189495086669922, 0.08000000566244125, 0.01600000075995922, 1.040000081062317, 0.0, 0.0, 0.0, 0.0, 0.0, 1.613351155920615E9, 2021-02-14 20:05:55.920
52.0, 10.48854923248291, 13.785271644592285, 3.54355525970459, 8.023955345153809, 0.08000000566244125, 0.01600000075995922, 1.040000081062317, 0.0, 0.0, 0.0, 0.0, 0.0, 1.613351155920615E9, 2021-02-14 20:05:55.920
53.0, 14.434144020080566, 23.666086196899414, 17.844932556152344, 20.317007064819336, 0.08000000566244125, 0.01600000075995922, 1.040000081062317, 0.0, 0.0, 0.0, 0.0, 0.0, 1.613351155950567E9, 2021-02-14 20:05:55.950
53.0, 16.577106475830078, 29.462932586669922, 23.95966911315918, 29.80887222290039, 0.08000000566244125, 0.01600000075995922, 1.040000081062317, 0.0, 0.0, 0.0, 0.0, 0.0, 1.613351155950567E9, 2021-02-14 20:05:55.950
54.0, 5.832374095916748, 8.467133522033691, 9.84528636932373, 2.6983377933502197, 0.08000000566244125, 0.01600000075995922, 1.040000081062317, 0.0, 0.0, 0.0, 0.0, 0.0, 1.613351155951514E9, 2021-02-14 20:05:55.951
54.0, 15.855305671691895, 25.72677230834961, 17.792573928833008, 18.211442947387695, 0.08000000566244125, 0.01600000075995922, 1.040000081062317, 0.0, 0.0, 0.0, 0.0, 0.0, 1.613351155951514E9, 2021-02-14 20:05:55.951
55.0, 19.845779418945312, 27.17411231994629, 22.714282989501953, 26.22604751586914, 0.08000000566244125, 0.01600000075995922, 1.040000081062317, 0.0, 0.0, 0.0, 0.0, 0.0, 1.613351155952152E9, 2021-02-14 20:05:55.952
55.0, 14.078853607177734, 21.324909210205078, 17.949649810791016, 17.280208587646484, 0.08000000566244125, 0.01600000075995922, 1.040000081062317, 0.0, 0.0, 0.0, 0.0, 0.0, 1.613351155952152E9, 2021-02-14 20:05:55.952
56.0, 11.098153114318848, 17.326955795288086, 8.719576835632324, 11.909711837768555, 0.08000000566244125, 0.01600000075995922, 1.040000081062317, 0.0, 0.0, 0.0, 0.0, 0.0, 1.61335115596421E9, 2021-02-14 20:05:55.964
56.0, 12.672651290893555, 25.90254783630371, 18.570472717285156, 21.928903579711914, 0.08000000566244125, 0.01600000075995922, 1.040000081062317, 0.0, 0.0, 0.0, 0.0, 0.0, 1.61335115596421E9, 2021-02-14 20:05:55.964
57.0, 18.663970947265625, 34.14154815673828, 28.851457595825195, 29.524641036987305, 0.08000000566244125, 0.01600000075995922, 1.040000081062317, 0.0, 0.0, 0.0, 0.0, 0.0, 1.613351155979899E9, 2021-02-14 20:05:55.979
57.0, 9.897644996643066, 11.679707527160645, 5.065694332122803, 5.667818546295166, 0.08000000566244125, 0.01600000075995922, 1.040000081062317, 0.0, 0.0, 0.0, 0.0, 0.0, 1.613351155979899E9, 2021-02-14 20:05:55.979
58.0, 17.927209854125977, 24.6309814453125, 18.9444637298584, 18.07306671142578, 0.08000000566244125, 0.01600000075995922, 1.040000081062317, 0.0, 0.0, 0.0, 0.0, 0.0, 1.613351155980672E9, 2021-02-14 20:05:55.980
58.0, 19.363332748413086, 31.86394691467285, 24.565532684326172, 26.600038528442383, 0.08000000566244125, 0.01600000075995922, 1.040000081062317, 0.0, 0.0, 0.0, 0.0, 0.0, 1.613351155980672E9, 2021-02-14 20:05:55.980
59.0, 11.726456642150879, 11.679707527160645, 3.6669719219207764, 7.788341522216797, 0.08000000566244125, 0.01600000075995922, 1.040000081062317, 0.0, 0.0, 0.0, 0.0, 0.0, 1.613351155994213E9, 2021-02-14 20:05:55.994
59.0, 13.229896545410156, 12.719399452209473, 12.033127784729004, 14.946510314941406, 0.08000000566244125, 0.01600000075995922, 1.040000081062317, 0.0, 0.0, 0.0, 0.0, 0.0, 1.613351155994213E9, 2021-02-14 20:05:55.994
60.0, 23.200469970703125, 27.821115493774414, 26.99646759033203, 29.54707908630371, 0.08000000566244125, 0.01600000075995922, 1.040000081062317, 0.0, 0.0, 0.0, 0.0, 0.0, 1.613351156009963E9, 2021-02-14 20:05:56.009
60.0, 12.878345489501953, 17.622407913208008, 15.028787612915039, 16.651905059814453, 0.08000000566244125, 0.01600000075995922, 1.040000081062317, 0.0, 0.0, 0.0, 0.0, 0.0, 1.613351156009963E9, 2021-02-14 20:05:56.009
61.0, 14.542600631713867, 18.867795944213867, 8.895352363586426, 10.372612953186035, 0.08000000566244125, 0.01600000075995922, 1.040000081062317, 0.0, 0.0, 0.0, 0.0, 0.0, 1.613351156010677E9, 2021-02-14 20:05:56.010
61.0, 19.40821075439453, 21.321168899536133, 20.040254592895508, 21.872804641723633, 0.08000000566244125, 0.01600000075995922, 1.040000081062317, 0.0, 0.0, 0.0, 0.0, 0.0, 1.613351156010677E9, 2021-02-14 20:05:56.010
62.0, 18.46949577331543, 27.518184661865234, 29.707895278930664, 30.990680694580078, 0.08000000566244125, 0.01600000075995922, 1.040000081062317, 0.0, 0.0, 0.0, 0.0, 0.0, 1.613351156024245E9, 2021-02-14 20:05:56.024
62.0, 9.781708717346191, 10.378222465515137, 12.365979194641113, 3.678191661834717, 0.08000000566244125, 0.01600000075995922, 1.040000081062317, 0.0, 0.0, 0.0, 0.0, 0.0, 1.613351156024245E9, 2021-02-14 20:05:56.024
63.0, 19.483009338378906, 24.960092544555664, 21.222063064575195, 17.829973220825195, 0.08000000566244125, 0.01600000075995922, 1.040000081062317, 0.0, 0.0, 0.0, 0.0, 0.0, 1.613351156040052E9, 2021-02-14 20:05:56.040
63.0, 18.061847686767578, 27.233951568603516, 30.80742645263672, 35.699214935302734, 0.08000000566244125, 0.01600000075995922, 1.040000081062317, 0.0, 0.0, 0.0, 0.0, 0.0, 1.613351156040052E9, 2021-02-14 20:05:56.040
64.0, 10.87001895904541, 10.13512897491455, 6.490596294403076, 7.115159511566162, 0.08000000566244125, 0.01600000075995922, 1.040000081062317, 0.0, 0.0, 0.0, 0.0, 0.0, 1.613351156040669E9, 2021-02-14 20:05:56.040
64.0, 12.358499526977539, 22.9405460357666, 9.441377639770508, 16.405071258544922, 0.08000000566244125, 0.01600000075995922, 1.040000081062317, 0.0, 0.0, 0.0, 0.0, 0.0, 1.613351156040669E9, 2021-02-14 20:05:56.040
65.0, 19.752281188964844, 26.366294860839844, 23.170549392700195, 29.311466217041016, 0.08000000566244125, 0.01600000075995922, 1.040000081062317, 0.0, 0.0, 0.0, 0.0, 0.0, 1.613351156054242E9, 2021-02-14 20:05:56.054
65.0, 10.208057403564453, 20.202939987182617, 15.376598358154297, 11.973289489746094, 0.08000000566244125, 0.01600000075995922, 1.040000081062317, 0.0, 0.0, 0.0, 0.0, 0.0, 1.613351156054242E9, 2021-02-14 20:05:56.054
66.0, 12.279961585998535, 12.8876953125, 11.603039741516113, 9.389019012451172, 0.08000000566244125, 0.01600000075995922, 1.040000081062317, 0.0, 0.0, 0.0, 0.0, 0.0, 1.613351156101956E9, 2021-02-14 20:05:56.101
66.0, 21.611011505126953, 27.099315643310547, 21.53621482849121, 20.4815616607666, 0.08000000566244125, 0.01600000075995922, 1.040000081062317, 0.0, 0.0, 0.0, 0.0, 0.0, 1.613351156101956E9, 2021-02-14 20:05:56.101
67.0, 22.979814529418945, 26.957199096679688, 26.27092742919922, 28.978614807128906, 0.08000000566244125, 0.01600000075995922, 1.040000081062317, 0.0, 0.0, 0.0, 0.0, 0.0, 1.613351156102697E9, 2021-02-14 20:05:56.102
67.0, 11.348726272583008, 5.090003967285156, -0.7311504483222961, -3.7043709754943848, 0.08000000566244125, 0.01600000075995922, 1.040000081062317, 0.0, 0.0, 0.0, 0.0, 0.0, 1.613351156102697E9, 2021-02-14 20:05:56.102
68.0, 14.019015312194824, 17.8468017578125, 19.73358154296875, 23.798852920532227, 0.08000000566244125, 0.01600000075995922, 1.040000081062317, 0.0, 0.0, 0.0, 0.0, 0.0, 1.613351156103497E9, 2021-02-14 20:05:56.103
68.0, 17.033374786376953, 31.71061134338379, 30.373598098754883, 33.649749755859375, 0.08000000566244125, 0.01600000075995922, 1.040000081062317, 0.0, 0.0, 0.0, 0.0, 0.0, 1.613351156103497E9, 2021-02-14 20:05:56.103
69.0, 8.947710990905762, 15.135375022888184, 5.1629319190979, 1.9877568483352661, 0.08000000566244125, 0.01600000075995922, 1.040000081062317, 0.0, 0.0, 0.0, 0.0, 0.0, 1.613351156104233E9, 2021-02-14 20:05:56.104
69.0, 18.34233856201172, 23.269657135009766, 14.550081253051758, 12.34354019165039, 0.08000000566244125, 0.01600000075995922, 1.040000081062317, 0.0, 0.0, 0.0, 0.0, 0.0, 1.613351156104233E9, 2021-02-14 20:05:56.104
70.0, 21.326780319213867, 27.93705177307129, 25.50798797607422, 26.356945037841797, 0.08000000566244125, 0.01600000075995922, 1.040000081062317, 0.0, 0.0, 0.0, 0.0, 0.0, 1.613351156114968E9, 2021-02-14 20:05:56.114
70.0, 13.476729393005371, 20.146841049194336, 12.358499526977539, 23.94470977783203, 0.08000000566244125, 0.01600000075995922, 1.040000081062317, 0.0, 0.0, 0.0, 0.0, 0.0, 1.613351156114968E9, 2021-02-14 20:05:56.114
71.0, 9.662031173706055, 18.69576072692871, 7.193697452545166, 13.080300331115723, 0.08000000566244125, 0.01600000075995922, 1.040000081062317, 0.0, 0.0, 0.0, 0.0, 0.0, 1.613351156115702E9, 2021-02-14 20:05:56.115
71.0, 16.73792266845703, 23.299575805664062, 22.493627548217773, 24.165363311767578, 0.08000000566244125, 0.01600000075995922, 1.040000081062317, 0.0, 0.0, 0.0, 0.0, 0.0, 1.613351156115702E9, 2021-02-14 20:05:56.115
72.0, 19.797161102294922, 26.571989059448242, 25.571565628051758, 33.5861701965332, 0.08000000566244125, 0.01600000075995922, 1.040000081062317, 0.0, 0.0, 0.0, 0.0, 0.0, 1.613351156130026E9, 2021-02-14 20:05:56.130
72.0, 10.22675609588623, 10.987826347351074, 1.9802770614624023, 2.814274787902832, 0.08000000566244125, 0.01600000075995922, 1.040000081062317, 0.0, 0.0, 0.0, 0.0, 0.0, 1.613351156130026E9, 2021-02-14 20:05:56.130
73.0, 15.79920768737793, 25.10968780517578, 21.951343536376953, 19.47178840637207, 0.08000000566244125, 0.01600000075995922, 1.040000081062317, 0.0, 0.0, 0.0, 0.0, 0.0, 1.613351156130708E9, 2021-02-14 20:05:56.130
73.0, 21.928903579711914, 29.081462860107422, 26.9553279876709, 27.811765670776367, 0.08000000566244125, 0.01600000075995922, 1.040000081062317, 0.0, 0.0, 0.0, 0.0, 0.0, 1.613351156130708E9, 2021-02-14 20:05:56.130
74.0, 8.225910186767578, 6.690680980682373, 6.505556106567383, 4.407472133636475, 0.08000000566244125, 0.01600000075995922, 1.040000081062317, 0.0, 0.0, 0.0, 0.0, 0.0, 1.613351156144212E9, 2021-02-14 20:05:56.144
74.0, 12.324840545654297, 19.70553207397461, 17.407363891601562, 14.591219902038574, 0.08000000566244125, 0.01600000075995922, 1.040000081062317, 0.0, 0.0, 0.0, 0.0, 0.0, 1.613351156144212E9, 2021-02-14 20:05:56.144
75.0, 19.277315139770508, 28.63641357421875, 26.289627075195312, 29.266586303710938, 0.08000000566244125, 0.01600000075995922, 1.040000081062317, 0.0, 0.0, 0.0, 0.0, 0.0, 1.613351156160002E9, 2021-02-14 20:05:56.160
75.0, 16.61076545715332, 22.07288932800293, 15.720669746398926, 15.496275901794434, 0.08000000566244125, 0.01600000075995922, 1.040000081062317, 0.0, 0.0, 0.0, 0.0, 0.0, 1.613351156160002E9, 2021-02-14 20:05:56.160
76.0, 10.092120170593262, 12.349149703979492, 8.147372245788574, 7.881839275360107, 0.08000000566244125, 0.01600000075995922, 1.040000081062317, 0.0, 0.0, 0.0, 0.0, 0.0, 1.613351156160926E9, 2021-02-14 20:05:56.160
76.0, 13.5477876663208, 20.07952308654785, 17.448503494262695, 21.8316650390625, 0.08000000566244125, 0.01600000075995922, 1.040000081062317, 0.0, 0.0, 0.0, 0.0, 0.0, 1.613351156160926E9, 2021-02-14 20:05:56.160
77.0, 21.4090576171875, 31.05986976623535, 32.793312072753906, 29.59195899963379, 0.08000000566244125, 0.01600000075995922, 1.040000081062317, 0.0, 0.0, 0.0, 0.0, 0.0, 1.613351156174218E9, 2021-02-14 20:05:56.174
77.0, 10.76156234741211, 13.91242790222168, 6.572874069213867, 3.5061562061309814, 0.08000000566244125, 0.01600000075995922, 1.040000081062317, 0.0, 0.0, 0.0, 0.0, 0.0, 1.613351156174218E9, 2021-02-14 20:05:56.174
78.0, 18.54803466796875, 24.040077209472656, 16.24425506591797, 16.906217575073242, 0.08000000566244125, 0.01600000075995922, 1.040000081062317, 0.0, 0.0, 0.0, 0.0, 0.0, 1.613351156189987E9, 2021-02-14 20:05:56.189
78.0, 18.316160202026367, 28.011850357055664, 28.357791900634766, 33.27949905395508, 0.08000000566244125, 0.01600000075995922, 1.040000081062317, 0.0, 0.0, 0.0, 0.0, 0.0, 1.613351156189987E9, 2021-02-14 20:05:56.189
79.0, 8.966409683227539, 13.082170486450195, 7.298414707183838, 4.261616230010986, 0.08000000566244125, 0.01600000075995922, 1.040000081062317, 0.0, 0.0, 0.0, 0.0, 0.0, 1.613351156190751E9, 2021-02-14 20:05:56.190
79.0, 17.37370491027832, 14.510811805725098, 18.480714797973633, 16.831418991088867, 0.08000000566244125, 0.01600000075995922, 1.040000081062317, 0.0, 0.0, 0.0, 0.0, 0.0, 1.613351156190751E9, 2021-02-14 20:05:56.190
80.0, 23.402423858642578, 36.7856559753418, 26.203609466552734, 25.313512802124023, 0.08000000566244125, 0.01600000075995922, 1.040000081062317, 0.0, 0.0, 0.0, 0.0, 0.0, 1.6133511562042E9, 2021-02-14 20:05:56.204
80.0, 14.153651237487793, 17.573789596557617, 13.731042861938477, 17.867372512817383, 0.08000000566244125, 0.01600000075995922, 1.040000081062317, 0.0, 0.0, 0.0, 0.0, 0.0, 1.6133511562042E9, 2021-02-14 20:05:56.204
81.0, 9.280561447143555, 13.082170486450195, 8.543801307678223, 9.647071838378906, 0.08000000566244125, 0.01600000075995922, 1.040000081062317, 0.0, 0.0, 0.0, 0.0, 0.0, 1.613351156219968E9, 2021-02-14 20:05:56.219
81.0, 13.645025253295898, 20.431074142456055, 22.329072952270508, 19.389511108398438, 0.08000000566244125, 0.01600000075995922, 1.040000081062317, 0.0, 0.0, 0.0, 0.0, 0.0, 1.613351156219968E9, 2021-02-14 20:05:56.219
82.0, 20.302047729492188, 24.44024658203125, 25.35091209411621, 25.156436920166016, 0.08000000566244125, 0.01600000075995922, 1.040000081062317, 0.0, 0.0, 0.0, 0.0, 0.0, 1.61335115622074E9, 2021-02-14 20:05:56.220
82.0, 12.250041961669922, 3.672581672668457, -1.969057321548462, 8.779415130615234, 0.08000000566244125, 0.01600000075995922, 1.040000081062317, 0.0, 0.0, 0.0, 0.0, 0.0, 1.61335115622074E9, 2021-02-14 20:05:56.220
83.0, 10.937337875366211, 21.433366775512695, 12.620292663574219, 18.82852554321289, 0.08000000566244125, 0.01600000075995922, 1.040000081062317, 0.0, 0.0, 0.0, 0.0, 0.0, 1.61335115623446E9, 2021-02-14 20:05:56.234
83.0, 23.537059783935547, 32.825103759765625, 28.754220962524414, 33.552513122558594, 0.08000000566244125, 0.01600000075995922, 1.040000081062317, 0.0, 0.0, 0.0, 0.0, 0.0, 1.61335115623446E9, 2021-02-14 20:05:56.234
84.0, 10.705463409423828, 11.571250915527344, 7.896798610687256, 6.101646900177002, 0.08000000566244125, 0.01600000075995922, 1.040000081062317, 0.0, 0.0, 0.0, 0.0, 0.0, 1.613351156249887E9, 2021-02-14 20:05:56.249
84.0, 13.211196899414062, 17.484031677246094, 7.111419677734375, 17.355005264282227, 0.08000000566244125, 0.01600000075995922, 1.040000081062317, 0.0, 0.0, 0.0, 0.0, 0.0, 1.613351156249887E9, 2021-02-14 20:05:56.249
85.0, 16.44247055053711, 28.8271484375, 25.646364212036133, 29.292766571044922, 0.08000000566244125, 0.01600000075995922, 1.040000081062317, 0.0, 0.0, 0.0, 0.0, 0.0, 1.613351156250661E9, 2021-02-14 20:05:56.250
85.0, 18.686410903930664, 21.231412887573242, 15.64587116241455, 22.972335815429688, 0.08000000566244125, 0.01600000075995922, 1.040000081062317, 0.0, 0.0, 0.0, 0.0, 0.0, 1.613351156250661E9, 2021-02-14 20:05:56.250
86.0, 13.742262840270996, 15.954413414001465, 9.508695602416992, 12.900784492492676, 0.08000000566244125, 0.01600000075995922, 1.040000081062317, 0.0, 0.0, 0.0, 0.0, 0.0, 1.61335115626416E9, 2021-02-14 20:05:56.264
86.0, 21.438976287841797, 30.06505584716797, 26.577598571777344, 24.681468963623047, 0.08000000566244125, 0.01600000075995922, 1.040000081062317, 0.0, 0.0, 0.0, 0.0, 0.0, 1.61335115626416E9, 2021-02-14 20:05:56.264
87.0, 15.544894218444824, 27.211511611938477, 26.491580963134766, 29.3787841796875, 0.08000000566244125, 0.01600000075995922, 1.040000081062317, 0.0, 0.0, 0.0, 0.0, 0.0, 1.613351156280567E9, 2021-02-14 20:05:56.280
87.0, 7.1488189697265625, 8.534451484680176, 2.3654866218566895, -1.3257945775985718, 0.08000000566244125, 0.01600000075995922, 1.040000081062317, 0.0, 0.0, 0.0, 0.0, 0.0, 1.613351156280567E9, 2021-02-14 20:05:56.280
88.0, 17.104433059692383, 25.08350944519043, 17.758914947509766, 19.150157928466797, 0.08000000566244125, 0.01600000075995922, 1.040000081062317, 0.0, 0.0, 0.0, 0.0, 0.0, 1.613351156281311E9, 2021-02-14 20:05:56.281
88.0, 20.967748641967773, 31.86020851135254, 34.25935363769531, 35.38880157470703, 0.08000000566244125, 0.01600000075995922, 1.040000081062317, 0.0, 0.0, 0.0, 0.0, 0.0, 1.613351156281311E9, 2021-02-14 20:05:56.281
89.0, 10.054720878601074, 11.152381896972656, 5.570580959320068, 10.290334701538086, 0.08000000566244125, 0.01600000075995922, 1.040000081062317, 0.0, 0.0, 0.0, 0.0, 0.0, 1.613351156294243E9, 2021-02-14 20:05:56.294
89.0, 17.72899627685547, 18.407787322998047, 13.143877983093262, 16.820199966430664, 0.08000000566244125, 0.01600000075995922, 1.040000081062317, 0.0, 0.0, 0.0, 0.0, 0.0, 1.613351156294243E9, 2021-02-14 20:05:56.294
90.0, 18.450796127319336, 29.219839096069336, 24.513174057006836, 24.228940963745117, 0.08000000566244125, 0.01600000075995922, 1.040000081062317, 0.0, 0.0, 0.0, 0.0, 0.0, 1.613351156309928E9, 2021-02-14 20:05:56.309
90.0, 11.023355484008789, 19.06226921081543, 17.31760597229004, 16.195636749267578, 0.08000000566244125, 0.01600000075995922, 1.040000081062317, 0.0, 0.0, 0.0, 0.0, 0.0, 1.613351156309928E9, 2021-02-14 20:05:56.309
91.0, 13.817060470581055, 12.674520492553711, 10.51098918914795, 6.281161785125732, 0.08000000566244125, 0.01600000075995922, 1.040000081062317, 0.0, 0.0, 0.0, 0.0, 0.0, 1.613351156310675E9, 2021-02-14 20:05:56.310
91.0, 15.926363945007324, 22.742332458496094, 18.3984375, 19.849519729614258, 0.08000000566244125, 0.01600000075995922, 1.040000081062317, 0.0, 0.0, 0.0, 0.0, 0.0, 1.613351156310675E9, 2021-02-14 20:05:56.310
92.0, 20.676036834716797, 28.2399845123291, 27.370458602905273, 23.544540405273438, 0.08000000566244125, 0.01600000075995922, 1.040000081062317, 0.0, 0.0, 0.0, 0.0, 0.0, 1.613351156324241E9, 2021-02-14 20:05:56.324
92.0, 6.853366851806641, 10.740992546081543, 2.219630718231201, 2.402885675430298, 0.08000000566244125, 0.01600000075995922, 1.040000081062317, 0.0, 0.0, 0.0, 0.0, 0.0, 1.613351156324241E9, 2021-02-14 20:05:56.324
93.0, 13.229896545410156, 21.24637222290039, 16.06100082397461, 18.705110549926758, 0.08000000566244125, 0.01600000075995922, 1.040000081062317, 0.0, 0.0, 0.0, 0.0, 0.0, 1.613351156356289E9, 2021-02-14 20:05:56.356
93.0, 21.188404083251953, 33.62543869018555, 31.458168029785156, 34.29301452636719, 0.08000000566244125, 0.01600000075995922, 1.040000081062317, 0.0, 0.0, 0.0, 0.0, 0.0, 1.613351156356289E9, 2021-02-14 20:05:56.356
94.0, 8.618599891662598, 11.02896499633789, 2.301908493041992, 3.872666358947754, 0.08000000566244125, 0.01600000075995922, 1.040000081062317, 0.0, 0.0, 0.0, 0.0, 0.0, 1.613351156356996E9, 2021-02-14 20:05:56.356
94.0, 17.8411922454834, 19.294143676757812, 13.903078079223633, 16.266695022583008, 0.08000000566244125, 0.01600000075995922, 1.040000081062317, 0.0, 0.0, 0.0, 0.0, 0.0, 1.613351156356996E9, 2021-02-14 20:05:56.356
95.0, 19.655044555664062, 25.939945220947266, 25.448148727416992, 29.62561798095703, 0.08000000566244125, 0.01600000075995922, 1.040000081062317, 0.0, 0.0, 0.0, 0.0, 0.0, 1.613351156357791E9, 2021-02-14 20:05:56.357
95.0, 10.335213661193848, 18.149734497070312, 18.888364791870117, 21.45767593383789, 0.08000000566244125, 0.01600000075995922, 1.040000081062317, 0.0, 0.0, 0.0, 0.0, 0.0, 1.613351156357791E9, 2021-02-14 20:05:56.357
96.0, 16.090919494628906, 14.237798690795898, 12.78858757019043, 12.033127784729004, 0.08000000566244125, 0.01600000075995922, 1.040000081062317, 0.0, 0.0, 0.0, 0.0, 0.0, 1.613351156358536E9, 2021-02-14 20:05:56.358
96.0, 16.86507797241211, 25.52855682373047, 21.027587890625, 20.417984008789062, 0.08000000566244125, 0.01600000075995922, 1.040000081062317, 0.0, 0.0, 0.0, 0.0, 0.0, 1.613351156358536E9, 2021-02-14 20:05:56.358
97.0, 20.23472785949707, 30.93271255493164, 28.769180297851562, 33.10372543334961, 0.08000000566244125, 0.01600000075995922, 1.040000081062317, 0.0, 0.0, 0.0, 0.0, 0.0, 1.613351156369217E9, 2021-02-14 20:05:56.369
97.0, 9.875205993652344, 6.997352600097656, 0.15894575417041779, 4.845040321350098, 0.08000000566244125, 0.01600000075995922, 1.040000081062317, 0.0, 0.0, 0.0, 0.0, 0.0, 1.613351156369217E9, 2021-02-14 20:05:56.369
98.0, 15.054966926574707, 19.69805335998535, 18.03940773010254, 23.07705307006836, 0.08000000566244125, 0.01600000075995922, 1.040000081062317, 0.0, 0.0, 0.0, 0.0, 0.0, 1.613351156384229E9, 2021-02-14 20:05:56.384
98.0, 20.874252319335938, 26.77768325805664, 30.7288875579834, 34.16211700439453, 0.08000000566244125, 0.01600000075995922, 1.040000081062317, 0.0, 0.0, 0.0, 0.0, 0.0, 1.613351156384229E9, 2021-02-14 20:05:56.384
99.0, 12.624032020568848, 12.102315902709961, 3.981123447418213, 6.240023136138916, 0.08000000566244125, 0.01600000075995922, 1.040000081062317, 0.0, 0.0, 0.0, 0.0, 0.0, 1.613351156399642E9, 2021-02-14 20:05:56.399
99.0, 17.30264663696289, 17.41671371459961, 13.727302551269531, 13.742262840270996, 0.08000000566244125, 0.01600000075995922, 1.040000081062317, 0.0, 0.0, 0.0, 0.0, 0.0, 1.613351156399642E9, 2021-02-14 20:05:56.399
100.0, 19.02674102783203, 27.200292587280273, 23.82503318786621, 29.06837272644043, 0.08000000566244125, 0.01600000075995922, 1.040000081062317, 0.0, 0.0, 0.0, 0.0, 0.0, 1.613351156415622E9, 2021-02-14 20:05:56.415
100.0, 12.781107902526855, 17.252159118652344, 19.340892791748047, 17.313867568969727, 0.08000000566244125, 0.01600000075995922, 1.040000081062317, 0.0, 0.0, 0.0, 0.0, 0.0, 1.613351156415622E9, 2021-02-14 20:05:56.415
0.0, 12.362238883972168, 15.255051612854004, 6.542954921722412, 8.74388599395752, 0.08000000566244125, 0.01600000075995922, 1.040000081062317, 0.0, 0.0, 0.0, 0.0, 0.0, 1.613351156416365E9, 2021-02-14 20:05:56.416
1.0, 16.274173736572266, 20.962139129638672, 16.62572479248047, 19.488618850708008, 0.08000000566244125, 0.01600000075995922, 1.040000081062317, 0.0, 0.0, 0.0, 0.0, 0.0, 1.613351156417111E9, 2021-02-14 20:05:56.417
1.0, 22.822738647460938, 33.247711181640625, 26.547679901123047, 33.296329498291016, 0.08000000566244125, 0.01600000075995922, 1.040000081062317, 0.0, 0.0, 0.0, 0.0, 0.0, 1.613351156417111E9, 2021-02-14 20:05:56.417
2.0, 6.542954921722412, 7.019792079925537, 3.4238784313201904, 1.1182301044464111, 0.08000000566244125, 0.01600000075995922, 1.040000081062317, 0.0, 0.0, 0.0, 0.0, 0.0, 1.61335115642922E9, 2021-02-14 20:05:56.429
2.0, 17.534521102905273, 23.47909164428711, 15.844085693359375, 20.924739837646484, 0.08000000566244125, 0.01600000075995922, 1.040000081062317, 0.0, 0.0, 0.0, 0.0, 0.0, 1.61335115642922E9, 2021-02-14 20:05:56.429
3.0, 19.76350212097168, 33.07941436767578, 24.565532684326172, 34.059268951416016, 0.08000000566244125, 0.01600000075995922, 1.040000081062317, 0.0, 0.0, 0.0, 0.0, 0.0, 1.6133511564449E9, 2021-02-14 20:05:56.444
3.0, 8.46152400970459, 8.904702186584473, 4.968457221984863, 7.820130825042725, 0.08000000566244125, 0.01600000075995922, 1.040000081062317, 0.0, 0.0, 0.0, 0.0, 0.0, 1.6133511564449E9, 2021-02-14 20:05:56.444
4.0, 14.946510314941406, 16.47052001953125, 10.8101806640625, 17.360614776611328, 0.08000000566244125, 0.01600000075995922, 1.040000081062317, 0.0, 0.0, 0.0, 0.0, 0.0, 1.613351156445637E9, 2021-02-14 20:05:56.445
4.0, 17.171751022338867, 29.90049934387207, 26.58133888244629, 20.03838348388672, 0.08000000566244125, 0.01600000075995922, 1.040000081062317, 0.0, 0.0, 0.0, 0.0, 0.0, 1.613351156445637E9, 2021-02-14 20:05:56.445
5.0, 14.591219902038574, 19.574636459350586, 11.629219055175781, 14.74642562866211, 0.08000000566244125, 0.01600000075995922, 1.040000081062317, 0.0, 0.0, 0.0, 0.0, 0.0, 1.613351156459237E9, 2021-02-14 20:05:56.459
5.0, 16.39759063720703, 15.083016395568848, 13.012982368469238, 9.787318229675293, 0.08000000566244125, 0.01600000075995922, 1.040000081062317, 0.0, 0.0, 0.0, 0.0, 0.0, 1.613351156459237E9, 2021-02-14 20:05:56.459
6.0, 15.612212181091309, 25.52855682373047, 23.892351150512695, 22.394521713256836, 0.08000000566244125, 0.01600000075995922, 1.040000081062317, 0.0, 0.0, 0.0, 0.0, 0.0, 1.613351156474986E9, 2021-02-14 20:05:56.474
6.0, 16.685564041137695, 31.000030517578125, 27.61355209350586, 27.432167053222656, 0.08000000566244125, 0.01600000075995922, 1.040000081062317, 0.0, 0.0, 0.0, 0.0, 0.0, 1.613351156474986E9, 2021-02-14 20:05:56.474
7.0, 9.2843017578125, 10.677413940429688, 2.1672720909118652, 3.8259177207946777, 0.08000000566244125, 0.01600000075995922, 1.040000081062317, 0.0, 0.0, 0.0, 0.0, 0.0, 1.613351156475713E9, 2021-02-14 20:05:56.475
7.0, 18.465755462646484, 25.401399612426758, 16.827680587768555, 19.42504119873047, 0.08000000566244125, 0.01600000075995922, 1.040000081062317, 0.0, 0.0, 0.0, 0.0, 0.0, 1.613351156475713E9, 2021-02-14 20:05:56.475
8.0, 21.21832275390625, 27.95201301574707, 27.576152801513672, 29.997737884521484, 0.08000000566244125, 0.01600000075995922, 1.040000081062317, 0.0, 0.0, 0.0, 0.0, 0.0, 1.613351156489262E9, 2021-02-14 20:05:56.489
8.0, 11.232789993286133, 13.026071548461914, 2.6160600185394287, 5.202200889587402, 0.08000000566244125, 0.01600000075995922, 1.040000081062317, 0.0, 0.0, 0.0, 0.0, 0.0, 1.613351156489262E9, 2021-02-14 20:05:56.489
9.0, 13.334612846374512, 17.502731323242188, 18.821046829223633, 11.978899955749512, 0.08000000566244125, 0.01600000075995922, 1.040000081062317, 0.0, 0.0, 0.0, 0.0, 0.0, 1.613351156504947E9, 2021-02-14 20:05:56.504
9.0, 19.045440673828125, 25.78287124633789, 25.616445541381836, 31.51239776611328, 0.08000000566244125, 0.01600000075995922, 1.040000081062317, 0.0, 0.0, 0.0, 0.0, 0.0, 1.613351156504947E9, 2021-02-14 20:05:56.504
10.0, 13.158838272094727, 19.993505477905273, 14.624878883361816, 16.06661033630371, 0.08000000566244125, 0.01600000075995922, 1.040000081062317, 0.0, 0.0, 0.0, 0.0, 0.0, 1.613351156505733E9, 2021-02-14 20:05:56.505
10.0, 11.367425918579102, 12.225732803344727, 4.53088903427124, 8.556891441345215, 0.08000000566244125, 0.01600000075995922, 1.040000081062317, 0.0, 0.0, 0.0, 0.0, 0.0, 1.613351156505733E9, 2021-02-14 20:05:56.505
11.0, 15.817907333374023, 20.00098419189453, 20.459123611450195, 21.235151290893555, 0.08000000566244125, 0.01600000075995922, 1.040000081062317, 0.0, 0.0, 0.0, 0.0, 0.0, 1.613351156519189E9, 2021-02-14 20:05:56.519
11.0, 16.214336395263672, 31.70313262939453, 27.198421478271484, 31.48247718811035, 0.08000000566244125, 0.01600000075995922, 1.040000081062317, 0.0, 0.0, 0.0, 0.0, 0.0, 1.613351156519189E9, 2021-02-14 20:05:56.519
12.0, 11.285147666931152, 13.31778335571289, -0.9929434657096863, 5.269518852233887, 0.08000000566244125, 0.01600000075995922, 1.040000081062317, 0.0, 0.0, 0.0, 0.0, 0.0, 1.613351156534954E9, 2021-02-14 20:05:56.534
12.0, 21.16970443725586, 25.928726196289062, 18.58917236328125, 21.893373489379883, 0.08000000566244125, 0.01600000075995922, 1.040000081062317, 0.0, 0.0, 0.0, 0.0, 0.0, 1.613351156534954E9, 2021-02-14 20:05:56.534
13.0, 20.55261993408203, 30.779376983642578, 28.458768844604492, 31.20946502685547, 0.08000000566244125, 0.01600000075995922, 1.040000081062317, 0.0, 0.0, 0.0, 0.0, 0.0, 1.613351156535698E9, 2021-02-14 20:05:56.535
13.0, 6.572874069213867, 9.188934326171875, 2.8554136753082275, 4.873089790344238, 0.08000000566244125, 0.01600000075995922, 1.040000081062317, 0.0, 0.0, 0.0, 0.0, 0.0, 1.613351156535698E9, 2021-02-14 20:05:56.535
14.0, 13.383232116699219, 16.451820373535156, 16.25173568725586, 15.524324417114258, 0.08000000566244125, 0.01600000075995922, 1.040000081062317, 0.0, 0.0, 0.0, 0.0, 0.0, 1.613351156549253E9, 2021-02-14 20:05:56.549
14.0, 20.63115882873535, 28.07916831970215, 23.955928802490234, 26.119461059570312, 0.08000000566244125, 0.01600000075995922, 1.040000081062317, 0.0, 0.0, 0.0, 0.0, 0.0, 1.613351156549253E9, 2021-02-14 20:05:56.549
15.0, 11.677837371826172, 15.715059280395508, 19.793420791625977, 17.97395896911621, 0.08000000566244125, 0.01600000075995922, 1.040000081062317, 0.0, 0.0, 0.0, 0.0, 0.0, 1.613351156564975E9, 2021-02-14 20:05:56.564
15.0, 11.928410530090332, 14.529511451721191, 11.341246604919434, 10.299684524536133, 0.08000000566244125, 0.01600000075995922, 1.040000081062317, 0.0, 0.0, 0.0, 0.0, 0.0, 1.613351156564975E9, 2021-02-14 20:05:56.564
16.0, 14.673497200012207, 26.89362144470215, 19.221216201782227, 15.591643333435059, 0.08000000566244125, 0.01600000075995922, 1.040000081062317, 0.0, 0.0, 0.0, 0.0, 0.0, 1.613351156565749E9, 2021-02-14 20:05:56.565
16.0, 21.786787033081055, 28.30356216430664, 28.312911987304688, 31.546056747436523, 0.08000000566244125, 0.01600000075995922, 1.040000081062317, 0.0, 0.0, 0.0, 0.0, 0.0, 1.613351156565749E9, 2021-02-14 20:05:56.565
17.0, 6.920684814453125, 7.367602825164795, 1.034082293510437, -2.6590688228607178, 0.08000000566244125, 0.01600000075995922, 1.040000081062317, 0.0, 0.0, 0.0, 0.0, 0.0, 1.61335115657925E9, 2021-02-14 20:05:56.579
17.0, 17.84867286682129, 23.15372085571289, 17.399885177612305, 25.936206817626953, 0.08000000566244125, 0.01600000075995922, 1.040000081062317, 0.0, 0.0, 0.0, 0.0, 0.0, 1.61335115657925E9, 2021-02-14 20:05:56.579
18.0, 18.162824630737305, 33.16917419433594, 29.352603912353516, 30.1473331451416, 0.08000000566244125, 0.01600000075995922, 1.040000081062317, 0.0, 0.0, 0.0, 0.0, 0.0, 1.613351156594985E9, 2021-02-14 20:05:56.594
18.0, 11.371166229248047, 14.278938293457031, 4.227956771850586, 8.407295227050781, 0.08000000566244125, 0.01600000075995922, 1.040000081062317, 0.0, 0.0, 0.0, 0.0, 0.0, 1.613351156594985E9, 2021-02-14 20:05:56.594
19.0, 16.472389221191406, 17.080123901367188, 15.451396942138672, 16.859468460083008, 0.08000000566244125, 0.01600000075995922, 1.040000081062317, 0.0, 0.0, 0.0, 0.0, 0.0, 1.613351156595681E9, 2021-02-14 20:05:56.595
19.0, 20.63863754272461, 30.57368278503418, 27.65468978881836, 26.89362144470215, 0.08000000566244125, 0.01600000075995922, 1.040000081062317, 0.0, 0.0, 0.0, 0.0, 0.0, 1.613351156595681E9, 2021-02-14 20:05:56.595
20.0, 17.336305618286133, 22.013051986694336, 20.51896095275879, 18.01883888244629, 0.08000000566244125, 0.01600000075995922, 1.040000081062317, 0.0, 0.0, 0.0, 0.0, 0.0, 1.613351156609227E9, 2021-02-14 20:05:56.609
20.0, 14.542600631713867, 17.700946807861328, 11.292628288269043, 13.12704849243164, 0.08000000566244125, 0.01600000075995922, 1.040000081062317, 0.0, 0.0, 0.0, 0.0, 0.0, 1.613351156609227E9, 2021-02-14 20:05:56.609
21.0, 15.425217628479004, 15.920754432678223, 20.8518123626709, 20.49091148376465, 0.08000000566244125, 0.01600000075995922, 1.040000081062317, 0.0, 0.0, 0.0, 0.0, 0.0, 1.613351156624988E9, 2021-02-14 20:05:56.624
21.0, 20.986448287963867, 33.48332595825195, 24.760007858276367, 33.621700286865234, 0.08000000566244125, 0.01600000075995922, 1.040000081062317, 0.0, 0.0, 0.0, 0.0, 0.0, 1.613351156624988E9, 2021-02-14 20:05:56.624
22.0, 6.075467586517334, 9.476906776428223, 1.5127894878387451, 3.261192798614502, 0.08000000566244125, 0.01600000075995922, 1.040000081062317, 0.0, 0.0, 0.0, 0.0, 0.0, 1.613351156625698E9, 2021-02-14 20:05:56.625
22.0, 18.27876091003418, 20.46847152709961, 16.034820556640625, 20.614328384399414, 0.08000000566244125, 0.01600000075995922, 1.040000081062317, 0.0, 0.0, 0.0, 0.0, 0.0, 1.613351156625698E9, 2021-02-14 20:05:56.625
23.0, 17.915990829467773, 30.199691772460938, 30.242700576782227, 31.168325424194336, 0.08000000566244125, 0.01600000075995922, 1.040000081062317, 0.0, 0.0, 0.0, 0.0, 0.0, 1.613351156639194E9, 2021-02-14 20:05:56.639
23.0, 11.924671173095703, 15.206433296203613, 7.0141825675964355, 6.017498970031738, 0.08000000566244125, 0.01600000075995922, 1.040000081062317, 0.0, 0.0, 0.0, 0.0, 0.0, 1.613351156639194E9, 2021-02-14 20:05:56.639
24.0, 11.6404390335083, 16.564016342163086, 14.239668846130371, 15.75993824005127, 0.08000000566244125, 0.01600000075995922, 1.040000081062317, 0.0, 0.0, 0.0, 0.0, 0.0, 1.613351156654939E9, 2021-02-14 20:05:56.654
24.0, 17.96834945678711, 26.624347686767578, 22.852659225463867, 28.32600212097168, 0.08000000566244125, 0.01600000075995922, 1.040000081062317, 0.0, 0.0, 0.0, 0.0, 0.0, 1.613351156654939E9, 2021-02-14 20:05:56.654
25.0, 18.424617767333984, 20.677906036376953, 17.05581283569336, 22.36834144592285, 0.08000000566244125, 0.01600000075995922, 1.040000081062317, 0.0, 0.0, 0.0, 0.0, 0.0, 1.613351156655696E9, 2021-02-14 20:05:56.655
25.0, 10.376352310180664, 16.44059944152832, 5.3574066162109375, 2.3823163509368896, 0.08000000566244125, 0.01600000075995922, 1.040000081062317, 0.0, 0.0, 0.0, 0.0, 0.0, 1.613351156655696E9, 2021-02-14 20:05:56.655
26.0, 16.274173736572266, 20.95465850830078, 17.242809295654297, 23.879261016845703, 0.08000000566244125, 0.01600000075995922, 1.040000081062317, 0.0, 0.0, 0.0, 0.0, 0.0, 1.613351156669189E9, 2021-02-14 20:05:56.669
26.0, 19.355852127075195, 32.93729782104492, 27.632251739501953, 31.931264877319336, 0.08000000566244125, 0.01600000075995922, 1.040000081062317, 0.0, 0.0, 0.0, 0.0, 0.0, 1.613351156669189E9, 2021-02-14 20:05:56.669
27.0, 6.655151844024658, 8.257699012756348, -2.918991804122925, 7.251666069030762, 0.08000000566244125, 0.01600000075995922, 1.040000081062317, 0.0, 0.0, 0.0, 0.0, 0.0, 1.613351156684919E9, 2021-02-14 20:05:56.684
27.0, 14.370565414428711, 19.5484561920166, 21.562393188476562, 18.303070068359375, 0.08000000566244125, 0.01600000075995922, 1.040000081062317, 0.0, 0.0, 0.0, 0.0, 0.0, 1.613351156684919E9, 2021-02-14 20:05:56.684
28.0, 20.818153381347656, 25.786609649658203, 33.04762649536133, 37.57477569580078, 0.08000000566244125, 0.01600000075995922, 1.040000081062317, 0.0, 0.0, 0.0, 0.0, 0.0, 1.613351156685707E9, 2021-02-14 20:05:56.685
28.0, 12.683870315551758, 13.575837135314941, 5.780015468597412, 1.7016544342041016, 0.08000000566244125, 0.01600000075995922, 1.040000081062317, 0.0, 0.0, 0.0, 0.0, 0.0, 1.613351156685707E9, 2021-02-14 20:05:56.685
29.0, 16.87255859375, 22.69371223449707, 18.506895065307617, 12.76801872253418, 0.08000000566244125, 0.01600000075995922, 1.040000081062317, 0.0, 0.0, 0.0, 0.0, 0.0, 1.613351156699277E9, 2021-02-14 20:05:56.699
29.0, 19.045440673828125, 23.47909164428711, 29.128210067749023, 31.01873016357422, 0.08000000566244125, 0.01600000075995922, 1.040000081062317, 0.0, 0.0, 0.0, 0.0, 0.0, 1.613351156699277E9, 2021-02-14 20:05:56.699
30.0, 14.838052749633789, 16.560277938842773, 18.03192710876465, 11.275798797607422, 0.08000000566244125, 0.01600000075995922, 1.040000081062317, 0.0, 0.0, 0.0, 0.0, 0.0, 1.613351156714941E9, 2021-02-14 20:05:56.714
30.0, 8.730796813964844, 13.396321296691895, 9.370319366455078, 5.677168369293213, 0.08000000566244125, 0.01600000075995922, 1.040000081062317, 0.0, 0.0, 0.0, 0.0, 0.0, 1.613351156714941E9, 2021-02-14 20:05:56.714
31.0, 17.818754196166992, 19.66439437866211, 21.95882225036621, 25.614574432373047, 0.08000000566244125, 0.01600000075995922, 1.040000081062317, 0.0, 0.0, 0.0, 0.0, 0.0, 1.613351156715668E9, 2021-02-14 20:05:56.715
31.0, 22.774120330810547, 32.25289535522461, 28.234375, 27.8884334564209, 0.08000000566244125, 0.01600000075995922, 1.040000081062317, 0.0, 0.0, 0.0, 0.0, 0.0, 1.613351156715668E9, 2021-02-14 20:05:56.715
32.0, 10.98969554901123, 6.735559940338135, -1.007902979850769, 7.692974090576172, 0.09600000083446503, 0.01600000075995922, 1.040000081062317, 0.0, 0.0, 0.0, 0.0, 0.0, 1.613351156729304E9, 2021-02-14 20:05:56.729
32.0, 17.534521102905273, 23.3107967376709, 11.741415977478027, 14.376175880432129, 0.09600000083446503, 0.01600000075995922, 1.040000081062317, 0.0, 0.0, 0.0, 0.0, 0.0, 1.613351156729304E9, 2021-02-14 20:05:56.729
33.0, 19.449350357055664, 30.439044952392578, 31.18889617919922, 32.05842208862305, 0.09600000083446503, 0.01600000075995922, 1.040000081062317, 0.0, 0.0, 0.0, 0.0, 0.0, 1.613351156744922E9, 2021-02-14 20:05:56.744
33.0, 7.268495559692383, 7.064671039581299, 5.237730026245117, 5.965140342712402, 0.09600000083446503, 0.01600000075995922, 1.040000081062317, 0.0, 0.0, 0.0, 0.0, 0.0, 1.613351156744922E9, 2021-02-14 20:05:56.744
34.0, 15.290580749511719, 21.758737564086914, 18.514373779296875, 18.29932975769043, 0.09600000083446503, 0.01600000075995922, 1.040000081062317, 0.0, 0.0, 0.0, 0.0, 0.0, 1.61335115674566E9, 2021-02-14 20:05:56.745
34.0, 17.624279022216797, 29.747163772583008, 22.179475784301758, 28.935606002807617, 0.09600000083446503, 0.01600000075995922, 1.040000081062317, 0.0, 0.0, 0.0, 0.0, 0.0, 1.61335115674566E9, 2021-02-14 20:05:56.745
35.0, 15.754328727722168, 25.087249755859375, 15.458876609802246, 14.376175880432129, 0.09600000083446503, 0.01600000075995922, 1.040000081062317, 0.0, 0.0, 0.0, 0.0, 0.0, 1.613351156759218E9, 2021-02-14 20:05:56.759
35.0, 9.003808975219727, 14.002185821533203, 5.619199752807617, 3.4407079219818115, 0.09600000083446503, 0.01600000075995922, 1.040000081062317, 0.0, 0.0, 0.0, 0.0, 0.0, 1.613351156759218E9, 2021-02-14 20:05:56.759
36.0, 20.59001922607422, 23.2808780670166, 21.898984909057617, 20.322616577148438, 0.09600000083446503, 0.01600000075995922, 1.040000081062317, 0.0, 0.0, 0.0, 0.0, 0.0, 1.613351156774937E9, 2021-02-14 20:05:56.774
36.0, 19.845779418945312, 31.81532859802246, 31.566625595092773, 32.574527740478516, 0.09600000083446503, 0.01600000075995922, 1.040000081062317, 0.0, 0.0, 0.0, 0.0, 0.0, 1.613351156774937E9, 2021-02-14 20:05:56.774
37.0, 9.549834251403809, 10.991565704345703, -1.2322970628738403, 5.0451250076293945, 0.09600000083446503, 0.01600000075995922, 1.040000081062317, 0.0, 0.0, 0.0, 0.0, 0.0, 1.61335115677565E9, 2021-02-14 20:05:56.775
37.0, 16.11709976196289, 20.752704620361328, 13.001762390136719, 16.956707000732422, 0.09600000083446503, 0.01600000075995922, 1.040000081062317, 0.0, 0.0, 0.0, 0.0, 0.0, 1.61335115677565E9, 2021-02-14 20:05:56.775
38.0, 16.58832550048828, 32.09955978393555, 28.230634689331055, 32.36509323120117, 0.09600000083446503, 0.01600000075995922, 1.040000081062317, 0.0, 0.0, 0.0, 0.0, 0.0, 1.613351156789282E9, 2021-02-14 20:05:56.789
38.0, 13.712343215942383, 13.063470840454102, 5.406025409698486, 9.132835388183594, 0.09600000083446503, 0.01600000075995922, 1.040000081062317, 0.0, 0.0, 0.0, 0.0, 0.0, 1.613351156789282E9, 2021-02-14 20:05:56.789
39.0, 15.874005317687988, 19.32406234741211, 16.767841339111328, 13.871289253234863, 0.09600000083446503, 0.01600000075995922, 1.040000081062317, 0.0, 0.0, 0.0, 0.0, 0.0, 1.613351156804955E9, 2021-02-14 20:05:56.804
39.0, 19.075359344482422, 25.71929168701172, 28.746740341186523, 30.94019317626953, 0.09600000083446503, 0.01600000075995922, 1.040000081062317, 0.0, 0.0, 0.0, 0.0, 0.0, 1.613351156804955E9, 2021-02-14 20:05:56.804
40.0, 14.265848159790039, 20.947179794311523, 16.319053649902344, 13.164447784423828, 0.09600000083446503, 0.01600000075995922, 1.040000081062317, 0.0, 0.0, 0.0, 0.0, 0.0, 1.613351156805657E9, 2021-02-14 20:05:56.805
40.0, 13.125179290771484, 15.50936508178711, 6.643932342529297, 8.3511962890625, 0.09600000083446503, 0.01600000075995922, 1.040000081062317, 0.0, 0.0, 0.0, 0.0, 0.0, 1.613351156805657E9, 2021-02-14 20:05:56.805
41.0, 17.010934829711914, 24.65342140197754, 23.8624324798584, 24.91895294189453, 0.09600000083446503, 0.01600000075995922, 1.040000081062317, 0.0, 0.0, 0.0, 0.0, 0.0, 1.613351156819275E9, 2021-02-14 20:05:56.819
41.0, 20.747095108032227, 26.788904190063477, 28.55974578857422, 31.51987648010254, 0.09600000083446503, 0.01600000075995922, 1.040000081062317, 0.0, 0.0, 0.0, 0.0, 0.0, 1.613351156819275E9, 2021-02-14 20:05:56.819
42.0, 5.693997859954834, 6.88515567779541, 5.387325763702393, -2.9470412731170654, 0.09600000083446503, 0.01600000075995922, 1.040000081062317, 0.0, 0.0, 0.0, 0.0, 0.0, 1.613351156851372E9, 2021-02-14 20:05:56.851
42.0, 15.271881103515625, 20.015945434570312, 15.956283569335938, 21.38848876953125, 0.09600000083446503, 0.01600000075995922, 1.040000081062317, 0.0, 0.0, 0.0, 0.0, 0.0, 1.613351156851372E9, 2021-02-14 20:05:56.851
43.0, 24.08682632446289, 32.35761260986328, 26.76459312438965, 34.77732849121094, 0.09600000083446503, 0.01600000075995922, 1.040000081062317, 0.0, 0.0, 0.0, 0.0, 0.0, 1.613351156852068E9, 2021-02-14 20:05:56.852
43.0, 14.662278175354004, 9.581624031066895, -0.7984686493873596, 11.369296073913574, 0.09600000083446503, 0.01600000075995922, 1.040000081062317, 0.0, 0.0, 0.0, 0.0, 0.0, 1.613351156852068E9, 2021-02-14 20:05:56.852
44.0, 13.353312492370605, 14.0321044921875, 20.676036834716797, 19.45121955871582, 0.09600000083446503, 0.01600000075995922, 1.040000081062317, 0.0, 0.0, 0.0, 0.0, 0.0, 1.613351156852804E9, 2021-02-14 20:05:56.852
44.0, 18.20770263671875, 29.657405853271484, 25.15269660949707, 29.21609878540039, 0.09600000083446503, 0.01600000075995922, 1.040000081062317, 0.0, 0.0, 0.0, 0.0, 0.0, 1.613351156852804E9, 2021-02-14 20:05:56.852
45.0, 16.509788513183594, 23.16119956970215, 17.64297866821289, 17.442893981933594, 0.09600000083446503, 0.01600000075995922, 1.040000081062317, 0.0, 0.0, 0.0, 0.0, 0.0, 1.613351156853533E9, 2021-02-14 20:05:56.853
45.0, 8.611119270324707, 14.320076942443848, 7.455490589141846, 10.96912670135498, 0.09600000083446503, 0.01600000075995922, 1.040000081062317, 0.0, 0.0, 0.0, 0.0, 0.0, 1.613351156853533E9, 2021-02-14 20:05:56.853
46.0, 15.111065864562988, 19.645694732666016, 12.437037467956543, 16.586456298828125, 0.09600000083446503, 0.01600000075995922, 1.040000081062317, 0.0, 0.0, 0.0, 0.0, 0.0, 1.61335115686425E9, 2021-02-14 20:05:56.864
46.0, 15.791728019714355, 23.3519344329834, 27.247041702270508, 29.425533294677734, 0.09600000083446503, 0.01600000075995922, 1.040000081062317, 0.0, 0.0, 0.0, 0.0, 0.0, 1.61335115686425E9, 2021-02-14 20:05:56.864
47.0, 6.95060396194458, 11.545071601867676, 4.91235876083374, 3.238753318786621, 0.09600000083446503, 0.01600000075995922, 1.040000081062317, 0.0, 0.0, 0.0, 0.0, 0.0, 1.613351156879252E9, 2021-02-14 20:05:56.879
47.0, 17.20541000366211, 20.135622024536133, 20.89295196533203, 19.511058807373047, 0.09600000083446503, 0.01600000075995922, 1.040000081062317, 0.0, 0.0, 0.0, 0.0, 0.0, 1.613351156879252E9, 2021-02-14 20:05:56.879
48.0, 22.437530517578125, 30.416606903076172, 28.15583610534668, 31.415159225463867, 0.09600000083446503, 0.01600000075995922, 1.040000081062317, 0.0, 0.0, 0.0, 0.0, 0.0, 1.613351156894901E9, 2021-02-14 20:05:56.894
48.0, 10.907418251037598, 11.720846176147461, 5.402285575866699, 1.4323816299438477, 0.09600000083446503, 0.01600000075995922, 1.040000081062317, 0.0, 0.0, 0.0, 0.0, 0.0, 1.613351156894901E9, 2021-02-14 20:05:56.894
49.0, 12.695090293884277, 22.12150764465332, 16.573366165161133, 13.860069274902344, 0.09600000083446503, 0.01600000075995922, 1.040000081062317, 0.0, 0.0, 0.0, 0.0, 0.0, 1.613351156895907E9, 2021-02-14 20:05:56.895
49.0, 15.032527923583984, 30.33806800842285, 26.04279327392578, 25.9923038482666, 0.09600000083446503, 0.01600000075995922, 1.040000081062317, 0.0, 0.0, 0.0, 0.0, 0.0, 1.613351156895907E9, 2021-02-14 20:05:56.895
50.0, 14.613658905029297, 21.848495483398438, 16.270435333251953, 14.970819473266602, 0.09600000083446503, 0.01600000075995922, 1.040000081062317, 0.0, 0.0, 0.0, 0.0, 0.0, 1.613351156909261E9, 2021-02-14 20:05:56.909
50.0, 13.970396041870117, 15.599123001098633, 11.232789993286133, 5.8604230880737305, 0.09600000083446503, 0.01600000075995922, 1.040000081062317, 0.0, 0.0, 0.0, 0.0, 0.0, 1.613351156909261E9, 2021-02-14 20:05:56.909
51.0, 15.78798770904541, 21.612882614135742, 16.917436599731445, 20.07952308654785, 0.09600000083446503, 0.01600000075995922, 1.040000081062317, 0.0, 0.0, 0.0, 0.0, 0.0, 1.613351156924924E9, 2021-02-14 20:05:56.924
51.0, 19.879438400268555, 27.155412673950195, 32.24354934692383, 30.412866592407227, 0.09600000083446503, 0.01600000075995922, 1.040000081062317, 0.0, 0.0, 0.0, 0.0, 0.0, 1.613351156924924E9, 2021-02-14 20:05:56.924
52.0, 5.095613479614258, 9.843416213989258, 3.9661638736724854, 1.099530577659607, 0.09600000083446503, 0.01600000075995922, 1.040000081062317, 0.0, 0.0, 0.0, 0.0, 0.0, 1.613351156925687E9, 2021-02-14 20:05:56.925
52.0, 19.419429779052734, 23.995197296142578, 19.722362518310547, 22.566556930541992, 0.09600000083446503, 0.01600000075995922, 1.040000081062317, 0.0, 0.0, 0.0, 0.0, 0.0, 1.613351156925687E9, 2021-02-14 20:05:56.925
53.0, 22.516067504882812, 30.80555534362793, 24.928302764892578, 29.07398223876953, 0.09600000083446503, 0.01600000075995922, 1.040000081062317, 0.0, 0.0, 0.0, 0.0, 0.0, 1.613351156939291E9, 2021-02-14 20:05:56.939
53.0, 11.980769157409668, 9.188934326171875, 4.370073318481445, 3.0255789756774902, 0.09600000083446503, 0.01600000075995922, 1.040000081062317, 0.0, 0.0, 0.0, 0.0, 0.0, 1.613351156939291E9, 2021-02-14 20:05:56.939
54.0, 8.45030403137207, 18.332988739013672, 14.804393768310547, 15.875875473022461, 0.09600000083446503, 0.01600000075995922, 1.040000081062317, 0.0, 0.0, 0.0, 0.0, 0.0, 1.613351156954935E9, 2021-02-14 20:05:56.954
54.0, 15.511235237121582, 31.02621078491211, 27.434036254882812, 26.964677810668945, 0.09600000083446503, 0.01600000075995922, 1.040000081062317, 0.0, 0.0, 0.0, 0.0, 0.0, 1.613351156954935E9, 2021-02-14 20:05:56.954
55.0, 13.3720121383667, 20.505870819091797, 16.932397842407227, 22.9704647064209, 0.09600000083446503, 0.01600000075995922, 1.040000081062317, 0.0, 0.0, 0.0, 0.0, 0.0, 1.613351156955684E9, 2021-02-14 20:05:56.955
55.0, 14.415444374084473, 13.60201644897461, 8.353066444396973, 9.267472267150879, 0.09600000083446503, 0.01600000075995922, 1.040000081062317, 0.0, 0.0, 0.0, 0.0, 0.0, 1.613351156955684E9, 2021-02-14 20:05:56.955
56.0, 20.163671493530273, 24.189672470092773, 17.00719451904297, 22.323463439941406, 0.09600000083446503, 0.01600000075995922, 1.040000081062317, 0.0, 0.0, 0.0, 0.0, 0.0, 1.613351156969299E9, 2021-02-14 20:05:56.969
56.0, 24.77122688293457, 27.297529220581055, 32.39688491821289, 38.78276443481445, 0.09600000083446503, 0.01600000075995922, 1.040000081062317, 0.0, 0.0, 0.0, 0.0, 0.0, 1.613351156969299E9, 2021-02-14 20:05:56.969
57.0, 7.904278755187988, 7.636875629425049, -0.14398615062236786, -5.250819683074951, 0.09600000083446503, 0.01600000075995922, 1.040000081062317, 0.0, 0.0, 0.0, 0.0, 0.0, 1.613351156984937E9, 2021-02-14 20:05:56.984
57.0, 16.438730239868164, 22.41322135925293, 19.206256866455078, 21.28750991821289, 0.09600000083446503, 0.01600000075995922, 1.040000081062317, 0.0, 0.0, 0.0, 0.0, 0.0, 1.613351156984937E9, 2021-02-14 20:05:56.984
58.0, 21.678329467773438, 29.103900909423828, 28.720561981201172, 33.98447036743164, 0.09600000083446503, 0.01600000075995922, 1.040000081062317, 0.0, 0.0, 0.0, 0.0, 0.0, 1.613351156985653E9, 2021-02-14 20:05:56.985
58.0, 13.876898765563965, 13.250465393066406, 3.928764820098877, 1.0658714771270752, 0.09600000083446503, 0.01600000075995922, 1.040000081062317, 0.0, 0.0, 0.0, 0.0, 0.0, 1.613351156985653E9, 2021-02-14 20:05:56.985
59.0, 14.464062690734863, 15.501885414123535, 13.17753791809082, 14.940899848937988, 0.09600000083446503, 0.01600000075995922, 1.040000081062317, 0.0, 0.0, 0.0, 0.0, 0.0, 1.613351156999255E9, 2021-02-14 20:05:56.999
59.0, 16.11709976196289, 27.533143997192383, 22.23557472229004, 26.130680084228516, 0.09600000083446503, 0.01600000075995922, 1.040000081062317, 0.0, 0.0, 0.0, 0.0, 0.0, 1.613351156999255E9, 2021-02-14 20:05:56.999
60.0, 8.334366798400879, 17.839323043823242, 14.269588470458984, 18.796737670898438, 0.09600000083446503, 0.01600000075995922, 1.040000081062317, 0.0, 0.0, 0.0, 0.0, 0.0, 1.613351157015151E9, 2021-02-14 20:05:57.015
60.0, 10.634405136108398, 16.642555236816406, 14.9652099609375, 11.623608589172363, 0.09600000083446503, 0.01600000075995922, 1.040000081062317, 0.0, 0.0, 0.0, 0.0, 0.0, 1.613351157015151E9, 2021-02-14 20:05:57.015
61.0, 17.355005264282227, 26.867441177368164, 20.93408966064453, 22.618915557861328, 0.09600000083446503, 0.01600000075995922, 1.040000081062317, 0.0, 0.0, 0.0, 0.0, 0.0, 1.613351157015757E9, 2021-02-14 20:05:57.015
61.0, 16.99971580505371, 27.70517921447754, 26.921669006347656, 26.605648040771484, 0.09600000083446503, 0.01600000075995922, 1.040000081062317, 0.0, 0.0, 0.0, 0.0, 0.0, 1.613351157015757E9, 2021-02-14 20:05:57.015
62.0, 10.080900192260742, 12.741839408874512, 3.218183994293213, -2.6740283966064453, 0.08000000566244125, 0.01600000075995922, 1.040000081062317, 0.0, 0.0, 0.0, 0.0, 0.0, 1.613351157029259E9, 2021-02-14 20:05:57.029
62.0, 13.783401489257812, 28.68503189086914, 16.6967830657959, 19.21186637878418, 0.08000000566244125, 0.01600000075995922, 1.040000081062317, 0.0, 0.0, 0.0, 0.0, 0.0, 1.613351157029259E9, 2021-02-14 20:05:57.029
63.0, 20.410503387451172, 26.239137649536133, 29.150650024414062, 31.317922592163086, 0.08000000566244125, 0.01600000075995922, 1.040000081062317, 0.0, 0.0, 0.0, 0.0, 0.0, 1.613351157044997E9, 2021-02-14 20:05:57.044
63.0, 7.679884433746338, 3.2275335788726807, 0.48431703448295593, -0.2730126976966858, 0.08000000566244125, 0.01600000075995922, 1.040000081062317, 0.0, 0.0, 0.0, 0.0, 0.0, 1.613351157044997E9, 2021-02-14 20:05:57.044
64.0, 20.388065338134766, 22.15142822265625, 18.34233856201172, 21.291250228881836, 0.08000000566244125, 0.01600000075995922, 1.040000081062317, 0.0, 0.0, 0.0, 0.0, 0.0, 1.613351157045734E9, 2021-02-14 20:05:57.045
64.0, 17.044593811035156, 28.94682502746582, 27.766887664794922, 31.418899536132812, 0.08000000566244125, 0.01600000075995922, 1.040000081062317, 0.0, 0.0, 0.0, 0.0, 0.0, 1.613351157045734E9, 2021-02-14 20:05:57.045
65.0, 10.634405136108398, 21.949472427368164, 14.112512588500977, 14.637968063354492, 0.08000000566244125, 0.01600000075995922, 1.040000081062317, 0.0, 0.0, 0.0, 0.0, 0.0, 1.613351157059259E9, 2021-02-14 20:05:57.059
65.0, 15.39529800415039, 14.944640159606934, 10.028541564941406, 9.596583366394043, 0.08000000566244125, 0.01600000075995922, 1.040000081062317, 0.0, 0.0, 0.0, 0.0, 0.0, 1.613351157059259E9, 2021-02-14 20:05:57.059
66.0, 21.842885971069336, 23.015344619750977, 15.814167022705078, 22.656314849853516, 0.08000000566244125, 0.01600000075995922, 1.040000081062317, 0.0, 0.0, 0.0, 0.0, 0.0, 1.613351157074938E9, 2021-02-14 20:05:57.074
66.0, 13.802101135253906, 26.70662498474121, 24.2439022064209, 34.57911682128906, 0.08000000566244125, 0.01600000075995922, 1.040000081062317, 0.0, 0.0, 0.0, 0.0, 0.0, 1.613351157074938E9, 2021-02-14 20:05:57.074
67.0, 10.567087173461914, 7.547118186950684, 5.361146450042725, 8.437213897705078, 0.08000000566244125, 0.01600000075995922, 1.040000081062317, 0.0, 0.0, 0.0, 0.0, 0.0, 1.61335115707568E9, 2021-02-14 20:05:57.075
67.0, 18.91454315185547, 19.986024856567383, 20.11505126953125, 17.076383590698242, 0.08000000566244125, 0.01600000075995922, 1.040000081062317, 0.0, 0.0, 0.0, 0.0, 0.0, 1.61335115707568E9, 2021-02-14 20:05:57.075
68.0, 22.897537231445312, 26.916059494018555, 28.193235397338867, 36.355567932128906, 0.08000000566244125, 0.01600000075995922, 1.040000081062317, 0.0, 0.0, 0.0, 0.0, 0.0, 1.613351157089221E9, 2021-02-14 20:05:57.089
68.0, 10.825139999389648, 11.395475387573242, 1.0527818202972412, 10.426840782165527, 0.08000000566244125, 0.01600000075995922, 1.040000081062317, 0.0, 0.0, 0.0, 0.0, 0.0, 1.613351157089221E9, 2021-02-14 20:05:57.089
69.0, 13.36827278137207, 17.11378288269043, 13.18127727508545, 14.873581886291504, 0.08000000566244125, 0.01600000075995922, 1.040000081062317, 0.0, 0.0, 0.0, 0.0, 0.0, 1.613351157104959E9, 2021-02-14 20:05:57.104
69.0, 21.14726448059082, 31.299222946166992, 22.897537231445312, 27.503223419189453, 0.08000000566244125, 0.01600000075995922, 1.040000081062317, 0.0, 0.0, 0.0, 0.0, 0.0, 1.613351157104959E9, 2021-02-14 20:05:57.104
70.0, 15.97872257232666, 19.305362701416016, 13.330873489379883, 14.346256256103516, 0.08000000566244125, 0.01600000075995922, 1.040000081062317, 0.0, 0.0, 0.0, 0.0, 0.0, 1.613351157105725E9, 2021-02-14 20:05:57.105
70.0, 8.487703323364258, 15.131635665893555, 10.645625114440918, 7.876229286193848, 0.08000000566244125, 0.01600000075995922, 1.040000081062317, 0.0, 0.0, 0.0, 0.0, 0.0, 1.613351157105725E9, 2021-02-14 20:05:57.105
71.0, 18.73128890991211, 24.720739364624023, 25.20879554748535, 20.917261123657227, 0.08000000566244125, 0.01600000075995922, 1.040000081062317, 0.0, 0.0, 0.0, 0.0, 0.0, 1.613351157119251E9, 2021-02-14 20:05:57.119
71.0, 21.132305145263672, 33.02705764770508, 29.700414657592773, 35.098960876464844, 0.08000000566244125, 0.01600000075995922, 1.040000081062317, 0.0, 0.0, 0.0, 0.0, 0.0, 1.613351157119251E9, 2021-02-14 20:05:57.119
72.0, 7.489149570465088, 8.631689071655273, 0.9705040454864502, 0.9125356078147888, 0.08000000566244125, 0.01600000075995922, 1.040000081062317, 0.0, 0.0, 0.0, 0.0, 0.0, 1.613351157134941E9, 2021-02-14 20:05:57.134
72.0, 16.70426368713379, 23.651126861572266, 16.39759063720703, 23.41551399230957, 0.08000000566244125, 0.01600000075995922, 1.040000081062317, 0.0, 0.0, 0.0, 0.0, 0.0, 1.613351157134941E9, 2021-02-14 20:05:57.134
73.0, 22.15703773498535, 30.1361141204834, 30.740108489990234, 29.560169219970703, 0.08000000566244125, 0.01600000075995922, 1.040000081062317, 0.0, 0.0, 0.0, 0.0, 0.0, 1.613351157135627E9, 2021-02-14 20:05:57.135
73.0, 16.535966873168945, 13.594536781311035, 6.737429618835449, 11.021485328674316, 0.08000000566244125, 0.01600000075995922, 1.040000081062317, 0.0, 0.0, 0.0, 0.0, 0.0, 1.613351157135627E9, 2021-02-14 20:05:57.135
