%OpenBCI Raw EEG Data
%Number of channels = 4
%Sample Rate = 200 Hz
%Board = OpenBCI_GUI$BoardGanglionBLE
Sample Index, EXG Channel 0, EXG Channel 1, EXG Channel 2, EXG Channel 3, Accel Channel 0, Accel Channel 1, Accel Channel 2, Other, Other, Other, Other, Other, Timestamp, Timestamp (Formatted)
0.0, 19.95236587524414, 26.600038528442383, 27.20403289794922, 26.775814056396484, 0.0, 0.0, 0.0, 0.0, 0.0, 0.0, 0.0, 0.0, 1.613351213236317E9, 2021-02-14 20:06:53.236
1.0, 9.050558090209961, 8.599900245666504, 6.799138069152832, 8.106233596801758, 0.0, 0.01600000075995922, 0.0, 0.0, 0.0, 0.0, 0.0, 0.0, 1.613351213237611E9, 2021-02-14 20:06:53.237
1.0, 16.575237274169922, 20.040254592895508, 16.118968963623047, 15.60847282409668, 0.0, 0.01600000075995922, 0.0, 0.0, 0.0, 0.0, 0.0, 0.0, 1.613351213237611E9, 2021-02-14 20:06:53.237
2.0, 17.510211944580078, 21.532474517822266, 19.91122817993164, 30.990680694580078, 0.04800000041723251, 0.01600000075995922, 0.0, 0.0, 0.0, 0.0, 0.0, 0.0, 1.61335121324995E9, 2021-02-14 20:06:53.249
2.0, 17.110042572021484, 22.19817543029785, 16.664993286132812, 16.109619140625, 0.04800000041723251, 0.01600000075995922, 0.0, 0.0, 0.0, 0.0, 0.0, 0.0, 1.61335121324995E9, 2021-02-14 20:06:53.249
3.0, 15.793597221374512, 19.363332748413086, 12.618422508239746, 14.624878883361816, 0.04800000041723251, 0.01600000075995922, 0.0, 0.0, 0.0, 0.0, 0.0, 0.0, 1.613351213265461E9, 2021-02-14 20:06:53.265
3.0, 12.32671070098877, 24.875944137573242, 15.75993824005127, 21.102384567260742, 0.04800000041723251, 0.01600000075995922, 0.0, 0.0, 0.0, 0.0, 0.0, 0.0, 1.613351213265461E9, 2021-02-14 20:06:53.265
4.0, 18.089895248413086, 27.142324447631836, 26.695405960083008, 27.419076919555664, 0.04800000041723251, 0.01600000075995922, 0.0, 0.0, 0.0, 0.0, 0.0, 0.0, 1.613351213266932E9, 2021-02-14 20:06:53.266
4.0, 7.891189098358154, 13.536567687988281, 3.2237937450408936, 9.381539344787598, 0.04800000041723251, 0.01600000075995922, 0.0, 0.0, 0.0, 0.0, 0.0, 0.0, 1.613351213266932E9, 2021-02-14 20:06:53.266
5.0, 16.238645553588867, 18.884624481201172, 17.173620223999023, 20.13749122619629, 0.04800000041723251, 0.01600000075995922, 0.0, 0.0, 0.0, 0.0, 0.0, 0.0, 1.613351213279959E9, 2021-02-14 20:06:53.279
5.0, 20.27773666381836, 27.325578689575195, 28.464378356933594, 28.780399322509766, 0.04800000041723251, 0.01600000075995922, 0.0, 0.0, 0.0, 0.0, 0.0, 0.0, 1.613351213279959E9, 2021-02-14 20:06:53.279
6.0, 10.288464546203613, 10.828880310058594, 5.422854900360107, 5.8211541175842285, 0.04800000041723251, 0.01600000075995922, 0.0, 0.0, 0.0, 0.0, 0.0, 0.0, 1.613351213280667E9, 2021-02-14 20:06:53.280
6.0, 15.68887996673584, 19.3259334564209, 12.480046272277832, 10.615706443786621, 0.04800000041723251, 0.01600000075995922, 0.0, 0.0, 0.0, 0.0, 0.0, 0.0, 1.613351213280667E9, 2021-02-14 20:06:53.280
7.0, 22.746070861816406, 27.172243118286133, 22.51045799255371, 29.69667625427246, 0.04800000041723251, 0.01600000075995922, 0.0, 0.0, 0.0, 0.0, 0.0, 0.0, 1.613351213294979E9, 2021-02-14 20:06:53.294
7.0, 8.141761779785156, 17.512081146240234, 16.358322143554688, 16.195636749267578, 0.04800000041723251, 0.01600000075995922, 0.0, 0.0, 0.0, 0.0, 0.0, 0.0, 1.613351213294979E9, 2021-02-14 20:06:53.294
8.0, 8.4185152053833, 13.095259666442871, 10.535298347473145, 9.901385307312012, 0.04800000041723251, 0.01600000075995922, 0.0, 0.0, 0.0, 0.0, 0.0, 0.0, 1.613351213309925E9, 2021-02-14 20:06:53.309
8.0, 15.019437789916992, 22.613304138183594, 18.153474807739258, 21.356698989868164, 0.04800000041723251, 0.01600000075995922, 0.0, 0.0, 0.0, 0.0, 0.0, 0.0, 1.613351213309925E9, 2021-02-14 20:06:53.309
9.0, 20.87238121032715, 26.775814056396484, 28.512996673583984, 30.710187911987305, 0.04800000041723251, 0.01600000075995922, 0.0, 0.0, 0.0, 0.0, 0.0, 0.0, 1.613351213310714E9, 2021-02-14 20:06:53.310
9.0, 10.823270797729492, 8.371766090393066, 2.0532050132751465, 4.766502380371094, 0.04800000041723251, 0.01600000075995922, 0.0, 0.0, 0.0, 0.0, 0.0, 0.0, 1.613351213310714E9, 2021-02-14 20:06:53.310
10.0, 22.607694625854492, 24.89838409423828, 21.220191955566406, 20.36188507080078, 0.04800000041723251, 0.01600000075995922, 0.527999997138977, 0.0, 0.0, 0.0, 0.0, 0.0, 1.613351213324309E9, 2021-02-14 20:06:53.324
10.0, 24.066255569458008, 33.86292266845703, 30.801816940307617, 35.54214096069336, 0.04800000041723251, 0.01600000075995922, 0.527999997138977, 0.0, 0.0, 0.0, 0.0, 0.0, 1.613351213324309E9, 2021-02-14 20:06:53.324
11.0, 11.126202583312988, 9.98740291595459, 4.7459330558776855, 4.351373672485352, 0.04800000041723251, 0.0, 0.527999997138977, 0.0, 0.0, 0.0, 0.0, 0.0, 1.61335121333999E9, 2021-02-14 20:06:53.339
11.0, 12.012558937072754, 20.0888729095459, 13.646895408630371, 9.497475624084473, 0.04800000041723251, 0.0, 0.527999997138977, 0.0, 0.0, 0.0, 0.0, 0.0, 1.61335121333999E9, 2021-02-14 20:06:53.339
12.0, 26.272796630859375, 32.3781852722168, 37.492496490478516, 34.087318420410156, 0.06400000303983688, 0.0, 0.527999997138977, 0.0, 0.0, 0.0, 0.0, 0.0, 1.613351213340682E9, 2021-02-14 20:06:53.340
12.0, 7.965986728668213, 15.327980041503906, 11.313197135925293, 17.687856674194336, 0.06400000303983688, 0.0, 0.527999997138977, 0.0, 0.0, 0.0, 0.0, 0.0, 1.613351213340682E9, 2021-02-14 20:06:53.340
13.0, 8.766325950622559, 14.912851333618164, 3.429488182067871, 4.560808181762695, 0.06400000303983688, 0.0, 0.527999997138977, 0.0, 0.0, 0.0, 0.0, 0.0, 1.613351213354274E9, 2021-02-14 20:06:53.354
13.0, 12.831596374511719, 22.557207107543945, 18.23575210571289, 21.77556800842285, 0.06400000303983688, 0.0, 0.527999997138977, 0.0, 0.0, 0.0, 0.0, 0.0, 1.613351213354274E9, 2021-02-14 20:06:53.354
14.0, 20.19171905517578, 31.589065551757812, 29.85188102722168, 29.419923782348633, 0.06400000303983688, 0.0, 0.527999997138977, 0.0, 0.0, 0.0, 0.0, 0.0, 1.613351213370006E9, 2021-02-14 20:06:53.370
14.0, 9.686341285705566, 10.406271934509277, 7.090850353240967, 5.4396843910217285, 0.06400000303983688, 0.0, 0.527999997138977, 0.0, 0.0, 0.0, 0.0, 0.0, 1.613351213370006E9, 2021-02-14 20:06:53.370
15.0, 16.507919311523438, 18.783647537231445, 17.94778060913086, 19.43065071105957, 0.06400000303983688, 0.0, 0.527999997138977, 0.0, 0.0, 0.0, 0.0, 0.0, 1.613351213370738E9, 2021-02-14 20:06:53.370
15.0, 18.564863204956055, 31.65264320373535, 27.73135757446289, 30.77750587463379, 0.06400000303983688, 0.0, 0.527999997138977, 0.0, 0.0, 0.0, 0.0, 0.0, 1.613351213370738E9, 2021-02-14 20:06:53.370
16.0, 10.568957328796387, 13.173797607421875, 3.994213104248047, 2.7394766807556152, 0.06400000303983688, 0.0, 0.527999997138977, 0.0, 0.0, 0.0, 0.0, 0.0, 1.613351213384356E9, 2021-02-14 20:06:53.384
16.0, 16.911827087402344, 22.972335815429688, 14.069503784179688, 21.14726448059082, 0.06400000303983688, 0.0, 0.527999997138977, 0.0, 0.0, 0.0, 0.0, 0.0, 1.613351213384356E9, 2021-02-14 20:06:53.384
17.0, 17.708425521850586, 27.665910720825195, 21.956953048706055, 29.797653198242188, 0.06400000303983688, 0.0, 0.527999997138977, 0.0, 0.0, 0.0, 0.0, 0.0, 1.613351213399992E9, 2021-02-14 20:06:53.399
17.0, 14.944640159606934, 20.201068878173828, 13.041030883789062, 16.001161575317383, 0.06400000303983688, 0.0, 0.527999997138977, 0.0, 0.0, 0.0, 0.0, 0.0, 1.613351213399992E9, 2021-02-14 20:06:53.399
18.0, 14.331296920776367, 13.716083526611328, 8.556891441345215, 13.319653511047363, 0.06400000303983688, 0.0, 0.527999997138977, 0.0, 0.0, 0.0, 0.0, 0.0, 1.613351213400716E9, 2021-02-14 20:06:53.400
18.0, 15.24757194519043, 17.949649810791016, 20.580669403076172, 22.48988914489746, 0.06400000303983688, 0.0, 0.527999997138977, 0.0, 0.0, 0.0, 0.0, 0.0, 1.613351213400716E9, 2021-02-14 20:06:53.400
19.0, 23.875520706176758, 30.47457504272461, 23.086402893066406, 27.056306838989258, 0.06400000303983688, 0.0, 0.527999997138977, 0.0, 0.0, 0.0, 0.0, 0.0, 1.613351213414272E9, 2021-02-14 20:06:53.414
19.0, 11.806863784790039, 9.243163108825684, 2.827364444732666, 1.4155521392822266, 0.06400000303983688, 0.0, 0.527999997138977, 0.0, 0.0, 0.0, 0.0, 0.0, 1.613351213414272E9, 2021-02-14 20:06:53.414
20.0, 19.45870018005371, 25.444408416748047, 17.28207778930664, 22.437530517578125, 0.06400000303983688, 0.0, 0.784000039100647, 0.0, 0.0, 0.0, 0.0, 0.0, 1.613351213429889E9, 2021-02-14 20:06:53.429
20.0, 18.381608963012695, 32.66615676879883, 30.64474105834961, 29.10951042175293, 0.06400000303983688, 0.0, 0.784000039100647, 0.0, 0.0, 0.0, 0.0, 0.0, 1.613351213429889E9, 2021-02-14 20:06:53.429
21.0, 9.933174133300781, 8.95145034790039, 10.886848449707031, 6.584094047546387, 0.06400000303983688, 0.01600000075995922, 0.784000039100647, 0.0, 0.0, 0.0, 0.0, 0.0, 1.613351213430738E9, 2021-02-14 20:06:53.430
21.0, 13.235506057739258, 18.432096481323242, 12.487525939941406, 15.660831451416016, 0.06400000303983688, 0.01600000075995922, 0.784000039100647, 0.0, 0.0, 0.0, 0.0, 0.0, 1.613351213430738E9, 2021-02-14 20:06:53.430
22.0, 19.066009521484375, 25.945556640625, 24.720739364624023, 22.437530517578125, 0.08000000566244125, 0.01600000075995922, 0.784000039100647, 0.0, 0.0, 0.0, 0.0, 0.0, 1.613351213444264E9, 2021-02-14 20:06:53.444
22.0, 16.75849151611328, 19.490488052368164, 17.704687118530273, 19.1202392578125, 0.08000000566244125, 0.01600000075995922, 0.784000039100647, 0.0, 0.0, 0.0, 0.0, 0.0, 1.613351213444264E9, 2021-02-14 20:06:53.444
23.0, 9.19641399383545, 11.96207046508789, 9.417068481445312, 9.08234691619873, 0.08000000566244125, 0.01600000075995922, 0.784000039100647, 0.0, 0.0, 0.0, 0.0, 0.0, 1.613351213460049E9, 2021-02-14 20:06:53.460
23.0, 13.564617156982422, 21.71198844909668, 18.957551956176758, 20.141231536865234, 0.08000000566244125, 0.01600000075995922, 0.784000039100647, 0.0, 0.0, 0.0, 0.0, 0.0, 1.613351213460049E9, 2021-02-14 20:06:53.460
24.0, 20.33383560180664, 25.762300491333008, 23.284616470336914, 31.27117347717285, 0.08000000566244125, 0.01600000075995922, 0.784000039100647, 0.0, 0.0, 0.0, 0.0, 0.0, 1.613351213460775E9, 2021-02-14 20:06:53.460
24.0, 8.070704460144043, 10.567087173461914, 3.0031397342681885, 4.646825790405273, 0.08000000566244125, 0.01600000075995922, 0.784000039100647, 0.0, 0.0, 0.0, 0.0, 0.0, 1.613351213460775E9, 2021-02-14 20:06:53.460
25.0, 17.502731323242188, 24.000808715820312, 20.11692237854004, 16.13579750061035, 0.08000000566244125, 0.01600000075995922, 0.784000039100647, 0.0, 0.0, 0.0, 0.0, 0.0, 1.613351213474272E9, 2021-02-14 20:06:53.474
25.0, 20.202939987182617, 30.893444061279297, 27.615421295166016, 28.589664459228516, 0.08000000566244125, 0.01600000075995922, 0.784000039100647, 0.0, 0.0, 0.0, 0.0, 0.0, 1.613351213474272E9, 2021-02-14 20:06:53.474
26.0, 13.20932674407959, 12.773628234863281, 3.4182684421539307, 5.731396675109863, 0.08000000566244125, 0.01600000075995922, 0.784000039100647, 0.0, 0.0, 0.0, 0.0, 0.0, 1.613351213489928E9, 2021-02-14 20:06:53.489
26.0, 14.084463119506836, 18.121685028076172, 13.13826847076416, 17.38866424560547, 0.08000000566244125, 0.01600000075995922, 0.784000039100647, 0.0, 0.0, 0.0, 0.0, 0.0, 1.613351213489928E9, 2021-02-14 20:06:53.489
27.0, 19.19690704345703, 28.98983383178711, 29.283416748046875, 25.642623901367188, 0.08000000566244125, 0.01600000075995922, 0.784000039100647, 0.0, 0.0, 0.0, 0.0, 0.0, 1.613351213490667E9, 2021-02-14 20:06:53.490
27.0, 12.521184921264648, 20.66107749938965, 20.494651794433594, 16.977275848388672, 0.08000000566244125, 0.01600000075995922, 0.784000039100647, 0.0, 0.0, 0.0, 0.0, 0.0, 1.613351213490667E9, 2021-02-14 20:06:53.490
28.0, 12.19581413269043, 15.612212181091309, 6.103516578674316, 9.804147720336914, 0.08000000566244125, 0.01600000075995922, 0.784000039100647, 0.0, 0.0, 0.0, 0.0, 0.0, 1.613351213520591E9, 2021-02-14 20:06:53.520
28.0, 17.18484115600586, 25.80344009399414, 21.440847396850586, 22.190696716308594, 0.08000000566244125, 0.01600000075995922, 0.784000039100647, 0.0, 0.0, 0.0, 0.0, 0.0, 1.613351213520591E9, 2021-02-14 20:06:53.520
29.0, 14.196660041809082, 24.068126678466797, 22.222484588623047, 25.73238182067871, 0.08000000566244125, 0.01600000075995922, 0.784000039100647, 0.0, 0.0, 0.0, 0.0, 0.0, 1.613351213521317E9, 2021-02-14 20:06:53.521
29.0, 11.092543601989746, 11.217829704284668, 4.330804347991943, 5.458384037017822, 0.08000000566244125, 0.01600000075995922, 0.784000039100647, 0.0, 0.0, 0.0, 0.0, 0.0, 1.613351213521317E9, 2021-02-14 20:06:53.521
30.0, 15.221392631530762, 22.022401809692383, 16.874427795410156, 20.272127151489258, 0.08000000566244125, 0.01600000075995922, 0.9120000600814819, 0.0, 0.0, 0.0, 0.0, 0.0, 1.613351213522098E9, 2021-02-14 20:06:53.522
30.0, 20.995798110961914, 27.239561080932617, 27.31622886657715, 33.178524017333984, 0.08000000566244125, 0.01600000075995922, 0.9120000600814819, 0.0, 0.0, 0.0, 0.0, 0.0, 1.613351213522098E9, 2021-02-14 20:06:53.522
31.0, 10.834489822387695, 8.289487838745117, 7.43118143081665, 7.560207843780518, 0.08000000566244125, 0.01600000075995922, 0.9120000600814819, 0.0, 0.0, 0.0, 0.0, 0.0, 1.613351213534528E9, 2021-02-14 20:06:53.534
31.0, 12.943793296813965, 18.226402282714844, 12.311750411987305, 17.788833618164062, 0.08000000566244125, 0.01600000075995922, 0.9120000600814819, 0.0, 0.0, 0.0, 0.0, 0.0, 1.613351213534528E9, 2021-02-14 20:06:53.534
32.0, 18.669580459594727, 30.3174991607666, 25.723031997680664, 29.685455322265625, 0.08000000566244125, 0.01600000075995922, 0.9120000600814819, 0.0, 0.0, 0.0, 0.0, 0.0, 1.613351213549895E9, 2021-02-14 20:06:53.549
32.0, 16.601415634155273, 20.904170989990234, 13.18688678741455, 16.954835891723633, 0.08000000566244125, 0.01600000075995922, 0.9120000600814819, 0.0, 0.0, 0.0, 0.0, 0.0, 1.613351213549895E9, 2021-02-14 20:06:53.549
33.0, 16.492958068847656, 11.460923194885254, 8.60176944732666, 7.754682540893555, 0.08000000566244125, 0.01600000075995922, 0.9120000600814819, 0.0, 0.0, 0.0, 0.0, 0.0, 1.613351213550635E9, 2021-02-14 20:06:53.550
33.0, 23.022823333740234, 24.09430503845215, 20.090742111206055, 19.236175537109375, 0.08000000566244125, 0.01600000075995922, 0.9120000600814819, 0.0, 0.0, 0.0, 0.0, 0.0, 1.613351213550635E9, 2021-02-14 20:06:53.550
34.0, 15.823516845703125, 29.719114303588867, 21.250110626220703, 31.170196533203125, 0.08000000566244125, 0.01600000075995922, 0.9120000600814819, 0.0, 0.0, 0.0, 0.0, 0.0, 1.613351213580669E9, 2021-02-14 20:06:53.580
34.0, 2.008326292037964, 14.793174743652344, 3.0405385494232178, 7.84443998336792, 0.08000000566244125, 0.01600000075995922, 0.9120000600814819, 0.0, 0.0, 0.0, 0.0, 0.0, 1.613351213580669E9, 2021-02-14 20:06:53.580
35.0, 11.328157424926758, 23.402423858642578, 21.97939109802246, 17.8000545501709, 0.08000000566244125, 0.01600000075995922, 0.9120000600814819, 0.0, 0.0, 0.0, 0.0, 0.0, 1.613351213581643E9, 2021-02-14 20:06:53.581
35.0, 23.01160430908203, 28.477468490600586, 29.249757766723633, 31.607765197753906, 0.08000000566244125, 0.01600000075995922, 0.9120000600814819, 0.0, 0.0, 0.0, 0.0, 0.0, 1.613351213581643E9, 2021-02-14 20:06:53.581
36.0, 9.749918937683105, 8.566241264343262, 6.391489028930664, 5.450904369354248, 0.08000000566244125, 0.01600000075995922, 0.9120000600814819, 0.0, 0.0, 0.0, 0.0, 0.0, 1.613351213582127E9, 2021-02-14 20:06:53.582
36.0, 13.837630271911621, 18.607872009277344, 15.827256202697754, 19.987895965576172, 0.08000000566244125, 0.01600000075995922, 0.9120000600814819, 0.0, 0.0, 0.0, 0.0, 0.0, 1.613351213582127E9, 2021-02-14 20:06:53.582
37.0, 18.860315322875977, 27.164762496948242, 24.874074935913086, 31.02433967590332, 0.08000000566244125, 0.01600000075995922, 0.9120000600814819, 0.0, 0.0, 0.0, 0.0, 0.0, 1.613351213594346E9, 2021-02-14 20:06:53.594
37.0, 15.43830680847168, 22.085979461669922, 20.131881713867188, 18.275020599365234, 0.08000000566244125, 0.01600000075995922, 0.9120000600814819, 0.0, 0.0, 0.0, 0.0, 0.0, 1.613351213594346E9, 2021-02-14 20:06:53.594
38.0, 12.790457725524902, 13.832019805908203, 8.706486701965332, 9.613412857055664, 0.08000000566244125, 0.01600000075995922, 0.9120000600814819, 0.0, 0.0, 0.0, 0.0, 0.0, 1.613351213609999E9, 2021-02-14 20:06:53.609
38.0, 16.141408920288086, 21.345478057861328, 16.586456298828125, 13.62258529663086, 0.08000000566244125, 0.01600000075995922, 0.9120000600814819, 0.0, 0.0, 0.0, 0.0, 0.0, 1.613351213609999E9, 2021-02-14 20:06:53.609
39.0, 16.384502410888672, 24.902124404907227, 27.95201301574707, 26.600038528442383, 0.08000000566244125, 0.01600000075995922, 0.9120000600814819, 0.0, 0.0, 0.0, 0.0, 0.0, 1.613351213610737E9, 2021-02-14 20:06:53.610
39.0, 11.589949607849121, 11.288887977600098, 5.789365291595459, 4.411211967468262, 0.08000000566244125, 0.01600000075995922, 0.9120000600814819, 0.0, 0.0, 0.0, 0.0, 0.0, 1.613351213610737E9, 2021-02-14 20:06:53.610
40.0, 19.477399826049805, 27.374197006225586, 15.587903022766113, 21.749387741088867, 0.08000000566244125, 0.01600000075995922, 0.9760000705718994, 0.0, 0.0, 0.0, 0.0, 0.0, 1.613351213624356E9, 2021-02-14 20:06:53.624
40.0, 23.116321563720703, 30.58677101135254, 30.921493530273438, 35.43742370605469, 0.08000000566244125, 0.01600000075995922, 0.9760000705718994, 0.0, 0.0, 0.0, 0.0, 0.0, 1.613351213624356E9, 2021-02-14 20:06:53.624
41.0, 9.432027816772461, 15.428956985473633, 7.823870658874512, 6.464416980743408, 0.08000000566244125, 0.01600000075995922, 0.9760000705718994, 0.0, 0.0, 0.0, 0.0, 0.0, 1.613351213639737E9, 2021-02-14 20:06:53.639
41.0, 17.693466186523438, 17.022153854370117, 10.681154251098633, 12.994282722473145, 0.08000000566244125, 0.01600000075995922, 0.9760000705718994, 0.0, 0.0, 0.0, 0.0, 0.0, 1.613351213639737E9, 2021-02-14 20:06:53.639
42.0, 17.196060180664062, 27.92396354675293, 26.803863525390625, 31.62646484375, 0.08000000566244125, 0.01600000075995922, 0.9760000705718994, 0.0, 0.0, 0.0, 0.0, 0.0, 1.613351213654737E9, 2021-02-14 20:06:53.654
42.0, 14.563170433044434, 21.539953231811523, 15.823516845703125, 18.267541885375977, 0.08000000566244125, 0.01600000075995922, 0.9760000705718994, 0.0, 0.0, 0.0, 0.0, 0.0, 1.613351213654737E9, 2021-02-14 20:06:53.654
43.0, 10.449280738830566, 20.563838958740234, 10.370742797851562, 10.0472412109375, 0.08000000566244125, 0.01600000075995922, 0.9760000705718994, 0.0, 0.0, 0.0, 0.0, 0.0, 1.613351213670666E9, 2021-02-14 20:06:53.670
43.0, 16.586456298828125, 20.57505989074707, 18.860315322875977, 22.99851417541504, 0.08000000566244125, 0.01600000075995922, 0.9760000705718994, 0.0, 0.0, 0.0, 0.0, 0.0, 1.613351213670666E9, 2021-02-14 20:06:53.670
44.0, 21.919553756713867, 27.621030807495117, 24.34674835205078, 29.984647750854492, 0.08000000566244125, 0.01600000075995922, 0.9760000705718994, 0.0, 0.0, 0.0, 0.0, 0.0, 1.613351213671371E9, 2021-02-14 20:06:53.671
44.0, 10.868148803710938, 11.96580982208252, 3.7398998737335205, 4.5944671630859375, 0.08000000566244125, 0.01600000075995922, 0.9760000705718994, 0.0, 0.0, 0.0, 0.0, 0.0, 1.613351213671371E9, 2021-02-14 20:06:53.671
45.0, 14.690326690673828, 17.31012725830078, 14.080723762512207, 13.910557746887207, 0.08000000566244125, 0.01600000075995922, 0.9760000705718994, 0.0, 0.0, 0.0, 0.0, 0.0, 1.613351213672183E9, 2021-02-14 20:06:53.672
45.0, 18.194612503051758, 27.89404296875, 24.24203109741211, 30.152942657470703, 0.08000000566244125, 0.01600000075995922, 0.9760000705718994, 0.0, 0.0, 0.0, 0.0, 0.0, 1.613351213672183E9, 2021-02-14 20:06:53.672
46.0, 8.635429382324219, 12.941924095153809, 4.3345441818237305, 0.3384609520435333, 0.08000000566244125, 0.01600000075995922, 0.9760000705718994, 0.0, 0.0, 0.0, 0.0, 0.0, 1.613351213684262E9, 2021-02-14 20:06:53.684
46.0, 14.432273864746094, 20.4404239654541, 16.395721435546875, 16.62572479248047, 0.08000000566244125, 0.01600000075995922, 0.9760000705718994, 0.0, 0.0, 0.0, 0.0, 0.0, 1.613351213684262E9, 2021-02-14 20:06:53.684
47.0, 19.368942260742188, 24.228940963745117, 25.263023376464844, 28.67942237854004, 0.08000000566244125, 0.01600000075995922, 0.9760000705718994, 0.0, 0.0, 0.0, 0.0, 0.0, 1.613351213699947E9, 2021-02-14 20:06:53.699
47.0, 15.43456745147705, 15.806687355041504, 15.18773365020752, 18.424617767333984, 0.08000000566244125, 0.01600000075995922, 0.9760000705718994, 0.0, 0.0, 0.0, 0.0, 0.0, 1.613351213699947E9, 2021-02-14 20:06:53.699
48.0, 12.135974884033203, 14.149911880493164, 13.680554389953613, 11.707756996154785, 0.08000000566244125, 0.01600000075995922, 0.9760000705718994, 0.0, 0.0, 0.0, 0.0, 0.0, 1.613351213700681E9, 2021-02-14 20:06:53.700
48.0, 15.838476181030273, 18.45453643798828, 21.4146671295166, 22.145816802978516, 0.08000000566244125, 0.01600000075995922, 0.9760000705718994, 0.0, 0.0, 0.0, 0.0, 0.0, 1.613351213700681E9, 2021-02-14 20:06:53.700
49.0, 20.042123794555664, 32.4006233215332, 30.86165428161621, 29.3787841796875, 0.08000000566244125, 0.01600000075995922, 0.9760000705718994, 0.0, 0.0, 0.0, 0.0, 0.0, 1.613351213714263E9, 2021-02-14 20:06:53.714
49.0, 10.673674583435059, 13.787140846252441, 5.291958332061768, 9.179584503173828, 0.08000000566244125, 0.01600000075995922, 0.9760000705718994, 0.0, 0.0, 0.0, 0.0, 0.0, 1.613351213714263E9, 2021-02-14 20:06:53.714
50.0, 15.636521339416504, 27.643470764160156, 19.28292465209961, 18.465755462646484, 0.08000000566244125, 0.01600000075995922, 1.0080000162124634, 0.0, 0.0, 0.0, 0.0, 0.0, 1.613351213729948E9, 2021-02-14 20:06:53.729
50.0, 22.338422775268555, 33.9040641784668, 26.313936233520508, 32.3781852722168, 0.08000000566244125, 0.01600000075995922, 1.0080000162124634, 0.0, 0.0, 0.0, 0.0, 0.0, 1.613351213729948E9, 2021-02-14 20:06:53.729
51.0, 12.659561157226562, 12.825986862182617, 6.357830047607422, 5.0843939781188965, 0.08000000566244125, 0.01600000075995922, 1.0080000162124634, 0.0, 0.0, 0.0, 0.0, 0.0, 1.613351213730696E9, 2021-02-14 20:06:53.730
51.0, 14.327556610107422, 19.62138557434082, 13.796490669250488, 14.505202293395996, 0.08000000566244125, 0.01600000075995922, 1.0080000162124634, 0.0, 0.0, 0.0, 0.0, 0.0, 1.613351213730696E9, 2021-02-14 20:06:53.730
52.0, 24.915212631225586, 28.06608009338379, 24.36918830871582, 27.692089080810547, 0.09600000083446503, 0.01600000075995922, 1.0080000162124634, 0.0, 0.0, 0.0, 0.0, 0.0, 1.613351213744302E9, 2021-02-14 20:06:53.744
52.0, 18.73689842224121, 20.70969581604004, 16.190027236938477, 17.175491333007812, 0.09600000083446503, 0.01600000075995922, 1.0080000162124634, 0.0, 0.0, 0.0, 0.0, 0.0, 1.613351213744302E9, 2021-02-14 20:06:53.744
53.0, 3.182654857635498, 14.639838218688965, 10.785871505737305, 6.513035774230957, 0.09600000083446503, 0.01600000075995922, 1.0080000162124634, 0.0, 0.0, 0.0, 0.0, 0.0, 1.613351213759977E9, 2021-02-14 20:06:53.759
53.0, 12.453866958618164, 20.664817810058594, 22.114028930664062, 18.87340545654297, 0.09600000083446503, 0.01600000075995922, 1.0080000162124634, 0.0, 0.0, 0.0, 0.0, 0.0, 1.613351213759977E9, 2021-02-14 20:06:53.759
54.0, 19.44373893737793, 27.22460174560547, 24.230812072753906, 28.152097702026367, 0.09600000083446503, 0.01600000075995922, 1.0080000162124634, 0.0, 0.0, 0.0, 0.0, 0.0, 1.613351213760691E9, 2021-02-14 20:06:53.760
54.0, 13.463640213012695, 10.51098918914795, 5.93148136138916, 3.524855613708496, 0.09600000083446503, 0.01600000075995922, 1.0080000162124634, 0.0, 0.0, 0.0, 0.0, 0.0, 1.613351213760691E9, 2021-02-14 20:06:53.760
55.0, 17.222238540649414, 23.33136558532715, 18.97251319885254, 17.093212127685547, 0.09600000083446503, 0.01600000075995922, 1.0080000162124634, 0.0, 0.0, 0.0, 0.0, 0.0, 1.613351213774296E9, 2021-02-14 20:06:53.774
55.0, 22.244924545288086, 29.719114303588867, 26.504671096801758, 34.66326141357422, 0.09600000083446503, 0.01600000075995922, 1.0080000162124634, 0.0, 0.0, 0.0, 0.0, 0.0, 1.613351213774296E9, 2021-02-14 20:06:53.774
56.0, 13.12704849243164, 17.059553146362305, 4.506579399108887, 5.813674449920654, 0.09600000083446503, 0.01600000075995922, 1.0080000162124634, 0.0, 0.0, 0.0, 0.0, 0.0, 1.613351213789983E9, 2021-02-14 20:06:53.789
56.0, 16.6612548828125, 20.223508834838867, 20.861162185668945, 18.877145767211914, 0.09600000083446503, 0.01600000075995922, 1.0080000162124634, 0.0, 0.0, 0.0, 0.0, 0.0, 1.613351213789983E9, 2021-02-14 20:06:53.789
57.0, 16.291004180908203, 25.605224609375, 27.813636779785156, 31.200115203857422, 0.09600000083446503, 0.01600000075995922, 1.0080000162124634, 0.0, 0.0, 0.0, 0.0, 0.0, 1.613351213790736E9, 2021-02-14 20:06:53.790
57.0, 11.253358840942383, 16.80898094177246, 15.24757194519043, 15.099845886230469, 0.09600000083446503, 0.01600000075995922, 1.0080000162124634, 0.0, 0.0, 0.0, 0.0, 0.0, 1.613351213790736E9, 2021-02-14 20:06:53.790
58.0, 11.825563430786133, 19.389511108398438, 11.2944974899292, 10.836359977722168, 0.09600000083446503, 0.01600000075995922, 1.0080000162124634, 0.0, 0.0, 0.0, 0.0, 0.0, 1.613351213804449E9, 2021-02-14 20:06:53.804
58.0, 15.490665435791016, 23.424863815307617, 22.865747451782227, 20.844331741333008, 0.09600000083446503, 0.01600000075995922, 1.0080000162124634, 0.0, 0.0, 0.0, 0.0, 0.0, 1.613351213804449E9, 2021-02-14 20:06:53.804
59.0, 18.721939086914062, 29.30024528503418, 29.313335418701172, 29.5545597076416, 0.09600000083446503, 0.01600000075995922, 1.0080000162124634, 0.0, 0.0, 0.0, 0.0, 0.0, 1.613351213819949E9, 2021-02-14 20:06:53.819
59.0, 13.385102272033691, 12.938183784484863, 3.455667495727539, 2.002716541290283, 0.09600000083446503, 0.01600000075995922, 1.0080000162124634, 0.0, 0.0, 0.0, 0.0, 0.0, 1.613351213819949E9, 2021-02-14 20:06:53.819
60.0, 19.653173446655273, 22.976076126098633, 17.82810401916504, 24.513174057006836, 0.09600000083446503, 0.01600000075995922, 1.0240000486373901, 0.0, 0.0, 0.0, 0.0, 0.0, 1.613351213820725E9, 2021-02-14 20:06:53.820
60.0, 16.934267044067383, 24.311220169067383, 31.029949188232422, 27.744447708129883, 0.09600000083446503, 0.01600000075995922, 1.0240000486373901, 0.0, 0.0, 0.0, 0.0, 0.0, 1.613351213820725E9, 2021-02-14 20:06:53.820
61.0, 9.779838562011719, 10.866279602050781, 2.124263286590576, 4.62812614440918, 0.09600000083446503, 0.01600000075995922, 1.0240000486373901, 0.0, 0.0, 0.0, 0.0, 0.0, 1.613351213834369E9, 2021-02-14 20:06:53.834
61.0, 16.941747665405273, 18.862184524536133, 10.086509704589844, 16.63320541381836, 0.09600000083446503, 0.01600000075995922, 1.0240000486373901, 0.0, 0.0, 0.0, 0.0, 0.0, 1.613351213834369E9, 2021-02-14 20:06:53.834
62.0, 18.650880813598633, 22.332813262939453, 21.10425567626953, 25.407011032104492, 0.08000000566244125, 0.01600000075995922, 1.0240000486373901, 0.0, 0.0, 0.0, 0.0, 0.0, 1.613351213866361E9, 2021-02-14 20:06:53.866
62.0, 19.06974983215332, 15.802947044372559, 16.291004180908203, 18.690149307250977, 0.08000000566244125, 0.01600000075995922, 1.0240000486373901, 0.0, 0.0, 0.0, 0.0, 0.0, 1.613351213866361E9, 2021-02-14 20:06:53.866
63.0, 15.191473960876465, 14.793174743652344, 7.105809688568115, 11.647918701171875, 0.08000000566244125, 0.01600000075995922, 1.0240000486373901, 0.0, 0.0, 0.0, 0.0, 0.0, 1.613351213867105E9, 2021-02-14 20:06:53.867
63.0, 2.6029703617095947, 24.584232330322266, 14.177960395812988, 21.539953231811523, 0.08000000566244125, 0.01600000075995922, 1.0240000486373901, 0.0, 0.0, 0.0, 0.0, 0.0, 1.613351213867105E9, 2021-02-14 20:06:53.867
64.0, 13.14948844909668, 31.45442771911621, 21.863454818725586, 28.881378173828125, 0.08000000566244125, 0.01600000075995922, 1.0240000486373901, 0.0, 0.0, 0.0, 0.0, 0.0, 1.613351213867838E9, 2021-02-14 20:06:53.867
64.0, 7.992166042327881, 8.84299373626709, 1.6231166124343872, 3.876406192779541, 0.08000000566244125, 0.01600000075995922, 1.0240000486373901, 0.0, 0.0, 0.0, 0.0, 0.0, 1.613351213867838E9, 2021-02-14 20:06:53.867
65.0, 12.547364234924316, 19.438129425048828, 17.532651901245117, 20.1000919342041, 0.08000000566244125, 0.01600000075995922, 1.0240000486373901, 0.0, 0.0, 0.0, 0.0, 0.0, 1.61335121386849E9, 2021-02-14 20:06:53.868
65.0, 20.281476974487305, 31.398330688476562, 31.022470474243164, 31.177675247192383, 0.08000000566244125, 0.01600000075995922, 1.0240000486373901, 0.0, 0.0, 0.0, 0.0, 0.0, 1.61335121386849E9, 2021-02-14 20:06:53.868
66.0, 11.384255409240723, 8.674697875976562, 7.498499393463135, 6.240023136138916, 0.08000000566244125, 0.01600000075995922, 1.0240000486373901, 0.0, 0.0, 0.0, 0.0, 0.0, 1.613351213879283E9, 2021-02-14 20:06:53.879
66.0, 14.379915237426758, 20.141231536865234, 18.83039665222168, 21.9962215423584, 0.08000000566244125, 0.01600000075995922, 1.0240000486373901, 0.0, 0.0, 0.0, 0.0, 0.0, 1.613351213879283E9, 2021-02-14 20:06:53.879
67.0, 19.73545265197754, 29.40496253967285, 27.009557723999023, 28.98235511779785, 0.08000000566244125, 0.01600000075995922, 1.0240000486373901, 0.0, 0.0, 0.0, 0.0, 0.0, 1.613351213894259E9, 2021-02-14 20:06:53.894
67.0, 16.25734519958496, 21.222063064575195, 15.599123001098633, 17.362485885620117, 0.08000000566244125, 0.01600000075995922, 1.0240000486373901, 0.0, 0.0, 0.0, 0.0, 0.0, 1.613351213894259E9, 2021-02-14 20:06:53.894
68.0, 13.022331237792969, 14.00405502319336, 8.283878326416016, 5.540661811828613, 0.08000000566244125, 0.01600000075995922, 1.0240000486373901, 0.0, 0.0, 0.0, 0.0, 0.0, 1.613351213909858E9, 2021-02-14 20:06:53.909
68.0, 16.13766860961914, 26.091411590576172, 18.699499130249023, 19.554067611694336, 0.08000000566244125, 0.01600000075995922, 1.0240000486373901, 0.0, 0.0, 0.0, 0.0, 0.0, 1.613351213909858E9, 2021-02-14 20:06:53.909
69.0, 19.009910583496094, 27.04134750366211, 25.72677230834961, 29.54707908630371, 0.08000000566244125, 0.01600000075995922, 1.0240000486373901, 0.0, 0.0, 0.0, 0.0, 0.0, 1.613351213925085E9, 2021-02-14 20:06:53.925
69.0, 8.4185152053833, 8.970149993896484, 6.2157135009765625, 4.362593173980713, 0.08000000566244125, 0.01600000075995922, 1.0240000486373901, 0.0, 0.0, 0.0, 0.0, 0.0, 1.613351213925085E9, 2021-02-14 20:06:53.925
70.0, 19.208126068115234, 19.213735580444336, 18.628440856933594, 19.475528717041016, 0.08000000566244125, 0.01600000075995922, 1.0240000486373901, 0.0, 0.0, 0.0, 0.0, 0.0, 1.613351213925696E9, 2021-02-14 20:06:53.925
70.0, 19.07723045349121, 29.36382484436035, 24.309349060058594, 30.31001853942871, 0.08000000566244125, 0.01600000075995922, 1.0240000486373901, 0.0, 0.0, 0.0, 0.0, 0.0, 1.613351213925696E9, 2021-02-14 20:06:53.925
71.0, 6.00253963470459, 3.595913887023926, 1.9746671915054321, 4.807641506195068, 0.08000000566244125, 0.01600000075995922, 1.0240000486373901, 0.0, 0.0, 0.0, 0.0, 0.0, 1.61335121393995E9, 2021-02-14 20:06:53.939
71.0, 19.26048469543457, 24.789926528930664, 17.196060180664062, 11.969550132751465, 0.08000000566244125, 0.01600000075995922, 1.0240000486373901, 0.0, 0.0, 0.0, 0.0, 0.0, 1.61335121393995E9, 2021-02-14 20:06:53.939
72.0, 18.082416534423828, 27.411596298217773, 22.420700073242188, 27.635990142822266, 0.08000000566244125, 0.01600000075995922, 1.0240000486373901, 0.0, 0.0, 0.0, 0.0, 0.0, 1.61335121394071E9, 2021-02-14 20:06:53.940
72.0, 15.666440963745117, 21.061246871948242, 17.52143096923828, 17.89729118347168, 0.08000000566244125, 0.01600000075995922, 1.0240000486373901, 0.0, 0.0, 0.0, 0.0, 0.0, 1.61335121394071E9, 2021-02-14 20:06:53.940
73.0, 11.320676803588867, 16.461170196533203, 11.324417114257812, 7.451750755310059, 0.08000000566244125, 0.01600000075995922, 1.0240000486373901, 0.0, 0.0, 0.0, 0.0, 0.0, 1.613351213954308E9, 2021-02-14 20:06:53.954
73.0, 18.276891708374023, 22.86387825012207, 20.251558303833008, 25.567825317382812, 0.08000000566244125, 0.01600000075995922, 1.0240000486373901, 0.0, 0.0, 0.0, 0.0, 0.0, 1.613351213954308E9, 2021-02-14 20:06:53.954
74.0, 20.19171905517578, 28.907556533813477, 23.422992706298828, 24.6365909576416, 0.08000000566244125, 0.01600000075995922, 1.0240000486373901, 0.0, 0.0, 0.0, 0.0, 0.0, 1.613351213969983E9, 2021-02-14 20:06:53.969
74.0, 11.212220191955566, 11.861092567443848, 4.4729204177856445, 6.969303607940674, 0.08000000566244125, 0.01600000075995922, 1.0240000486373901, 0.0, 0.0, 0.0, 0.0, 0.0, 1.613351213969983E9, 2021-02-14 20:06:53.969
75.0, 18.486326217651367, 18.776166915893555, 18.205833435058594, 23.417383193969727, 0.08000000566244125, 0.01600000075995922, 1.0240000486373901, 0.0, 0.0, 0.0, 0.0, 0.0, 1.613351213970717E9, 2021-02-14 20:06:53.970
75.0, 22.675012588500977, 30.81116485595703, 27.907133102416992, 32.48290252685547, 0.08000000566244125, 0.01600000075995922, 1.0240000486373901, 0.0, 0.0, 0.0, 0.0, 0.0, 1.613351213970717E9, 2021-02-14 20:06:53.970
76.0, 10.733512878417969, 13.536567687988281, 2.337437391281128, 7.40313196182251, 0.08000000566244125, 0.01600000075995922, 1.0240000486373901, 0.0, 0.0, 0.0, 0.0, 0.0, 1.613351213984554E9, 2021-02-14 20:06:53.984
76.0, 16.560277938842773, 20.95652961730957, 13.422500610351562, 11.804994583129883, 0.08000000566244125, 0.01600000075995922, 1.0240000486373901, 0.0, 0.0, 0.0, 0.0, 0.0, 1.613351213984554E9, 2021-02-14 20:06:53.984
77.0, 21.433366775512695, 27.045085906982422, 28.19884490966797, 31.944355010986328, 0.08000000566244125, 0.01600000075995922, 1.0240000486373901, 0.0, 0.0, 0.0, 0.0, 0.0, 1.61335121400021E9, 2021-02-14 20:06:54.000
77.0, 12.43516731262207, 17.938430786132812, 11.582469940185547, 18.712589263916016, 0.08000000566244125, 0.01600000075995922, 1.0240000486373901, 0.0, 0.0, 0.0, 0.0, 0.0, 1.61335121400021E9, 2021-02-14 20:06:54.000
78.0, 15.139115333557129, 9.074867248535156, 10.176267623901367, 8.865432739257812, 0.08000000566244125, 0.01600000075995922, 1.0240000486373901, 0.0, 0.0, 0.0, 0.0, 0.0, 1.613351214000788E9, 2021-02-14 20:06:54.000
78.0, 21.54930305480957, 22.96111488342285, 19.8887882232666, 22.605825424194336, 0.08000000566244125, 0.01600000075995922, 1.0240000486373901, 0.0, 0.0, 0.0, 0.0, 0.0, 1.613351214000788E9, 2021-02-14 20:06:54.000
79.0, 17.786964416503906, 28.230634689331055, 26.392473220825195, 22.026140213012695, 0.08000000566244125, 0.01600000075995922, 1.0240000486373901, 0.0, 0.0, 0.0, 0.0, 0.0, 1.613351214014269E9, 2021-02-14 20:06:54.014
79.0, 0.044878799468278885, 10.518468856811523, 0.7965986728668213, 3.2069642543792725, 0.08000000566244125, 0.01600000075995922, 1.0240000486373901, 0.0, 0.0, 0.0, 0.0, 0.0, 1.613351214014269E9, 2021-02-14 20:06:54.014
80.0, 9.297390937805176, 23.86617088317871, 6.791658401489258, 22.968595504760742, 0.08000000566244125, 0.01600000075995922, 1.040000081062317, 0.0, 0.0, 0.0, 0.0, 0.0, 1.613351214029971E9, 2021-02-14 20:06:54.029
80.0, 21.624101638793945, 28.627063751220703, 28.767311096191406, 31.663862228393555, 0.08000000566244125, 0.01600000075995922, 1.040000081062317, 0.0, 0.0, 0.0, 0.0, 0.0, 1.613351214029971E9, 2021-02-14 20:06:54.029
81.0, 9.18519401550293, 11.483363151550293, 9.297390937805176, 5.910912036895752, 0.08000000566244125, 0.01600000075995922, 1.040000081062317, 0.0, 0.0, 0.0, 0.0, 0.0, 1.613351214030704E9, 2021-02-14 20:06:54.030
81.0, 13.100869178771973, 21.106124877929688, 21.33238983154297, 15.462615966796875, 0.08000000566244125, 0.01600000075995922, 1.040000081062317, 0.0, 0.0, 0.0, 0.0, 0.0, 1.613351214030704E9, 2021-02-14 20:06:54.030
82.0, 20.057083129882812, 26.72345542907715, 28.591535568237305, 24.049427032470703, 0.08000000566244125, 0.01600000075995922, 1.040000081062317, 0.0, 0.0, 0.0, 0.0, 0.0, 1.613351214044308E9, 2021-02-14 20:06:54.044
82.0, 15.546764373779297, 19.202516555786133, 14.177960395812988, 16.883777618408203, 0.08000000566244125, 0.01600000075995922, 1.040000081062317, 0.0, 0.0, 0.0, 0.0, 0.0, 1.613351214044308E9, 2021-02-14 20:06:54.044
83.0, 11.930280685424805, 14.490242004394531, 9.585363388061523, 8.95145034790039, 0.08000000566244125, 0.01600000075995922, 1.040000081062317, 0.0, 0.0, 0.0, 0.0, 0.0, 1.613351214059974E9, 2021-02-14 20:06:54.059
83.0, 18.265670776367188, 24.281299591064453, 24.376667022705078, 26.278406143188477, 0.08000000566244125, 0.01600000075995922, 1.040000081062317, 0.0, 0.0, 0.0, 0.0, 0.0, 1.613351214059974E9, 2021-02-14 20:06:54.059
84.0, 22.372081756591797, 30.1417236328125, 29.81074333190918, 27.086225509643555, 0.08000000566244125, 0.01600000075995922, 1.040000081062317, 0.0, 0.0, 0.0, 0.0, 0.0, 1.613351214060673E9, 2021-02-14 20:06:54.060
84.0, 10.800830841064453, 13.11021900177002, 5.6696882247924805, 8.607379913330078, 0.08000000566244125, 0.01600000075995922, 1.040000081062317, 0.0, 0.0, 0.0, 0.0, 0.0, 1.613351214060673E9, 2021-02-14 20:06:54.060
85.0, 23.015344619750977, 25.511728286743164, 20.330095291137695, 24.29252052307129, 0.08000000566244125, 0.01600000075995922, 1.040000081062317, 0.0, 0.0, 0.0, 0.0, 0.0, 1.613351214074458E9, 2021-02-14 20:06:54.074
85.0, 21.107995986938477, 31.375890731811523, 30.973852157592773, 31.248733520507812, 0.08000000566244125, 0.01600000075995922, 1.040000081062317, 0.0, 0.0, 0.0, 0.0, 0.0, 1.613351214074458E9, 2021-02-14 20:06:54.074
86.0, 9.50308609008789, 11.288887977600098, 5.003986358642578, 2.458984136581421, 0.08000000566244125, 0.01600000075995922, 1.040000081062317, 0.0, 0.0, 0.0, 0.0, 0.0, 1.613351214089997E9, 2021-02-14 20:06:54.089
86.0, 13.291604042053223, 20.922870635986328, 13.336483001708984, 20.70221710205078, 0.08000000566244125, 0.01600000075995922, 1.040000081062317, 0.0, 0.0, 0.0, 0.0, 0.0, 1.613351214089997E9, 2021-02-14 20:06:54.089
87.0, 18.557384490966797, 30.351158142089844, 20.30765724182129, 29.150650024414062, 0.08000000566244125, 0.01600000075995922, 1.040000081062317, 0.0, 0.0, 0.0, 0.0, 0.0, 1.613351214090695E9, 2021-02-14 20:06:54.090
87.0, 14.682847023010254, 15.320500373840332, 9.877076148986816, 15.294321060180664, 0.08000000566244125, 0.01600000075995922, 1.040000081062317, 0.0, 0.0, 0.0, 0.0, 0.0, 1.613351214090695E9, 2021-02-14 20:06:54.090
88.0, 12.487525939941406, 15.851566314697266, 10.96912670135498, 11.445963859558105, 0.08000000566244125, 0.01600000075995922, 1.040000081062317, 0.0, 0.0, 0.0, 0.0, 0.0, 1.613351214104551E9, 2021-02-14 20:06:54.104
88.0, 15.389688491821289, 16.412551879882812, 15.5579833984375, 19.512928009033203, 0.08000000566244125, 0.01600000075995922, 1.040000081062317, 0.0, 0.0, 0.0, 0.0, 0.0, 1.613351214104551E9, 2021-02-14 20:06:54.104
89.0, 17.469072341918945, 31.057998657226562, 25.45001983642578, 30.59425163269043, 0.08000000566244125, 0.01600000075995922, 1.040000081062317, 0.0, 0.0, 0.0, 0.0, 0.0, 1.61335121411967E9, 2021-02-14 20:06:54.119
89.0, 7.117029666900635, 12.893304824829102, 5.867903232574463, 4.358853340148926, 0.08000000566244125, 0.01600000075995922, 1.040000081062317, 0.0, 0.0, 0.0, 0.0, 0.0, 1.61335121411967E9, 2021-02-14 20:06:54.119
90.0, 20.99953842163086, 22.968595504760742, 20.00098419189453, 20.545141220092773, 0.08000000566244125, 0.01600000075995922, 1.040000081062317, 0.0, 0.0, 0.0, 0.0, 0.0, 1.613351214134975E9, 2021-02-14 20:06:54.134
90.0, 23.497791290283203, 31.132797241210938, 29.324556350708008, 33.690887451171875, 0.08000000566244125, 0.01600000075995922, 1.040000081062317, 0.0, 0.0, 0.0, 0.0, 0.0, 1.613351214134975E9, 2021-02-14 20:06:54.134
91.0, 15.662700653076172, 9.86772632598877, 3.4893267154693604, 6.707510471343994, 0.08000000566244125, 0.01600000075995922, 1.040000081062317, 0.0, 0.0, 0.0, 0.0, 0.0, 1.613351214135686E9, 2021-02-14 20:06:54.135
91.0, 12.188333511352539, 22.890058517456055, 15.973113059997559, 16.019861221313477, 0.08000000566244125, 0.01600000075995922, 1.040000081062317, 0.0, 0.0, 0.0, 0.0, 0.0, 1.613351214135686E9, 2021-02-14 20:06:54.135
92.0, 16.616374969482422, 26.345726013183594, 29.571388244628906, 26.921669006347656, 0.08000000566244125, 0.01600000075995922, 1.040000081062317, 0.0, 0.0, 0.0, 0.0, 0.0, 1.613351214149924E9, 2021-02-14 20:06:54.149
92.0, 10.299684524536133, 21.491334915161133, 13.422500610351562, 18.903324127197266, 0.08000000566244125, 0.01600000075995922, 1.040000081062317, 0.0, 0.0, 0.0, 0.0, 0.0, 1.613351214149924E9, 2021-02-14 20:06:54.149
93.0, 10.482939720153809, 13.764701843261719, 16.107749938964844, 10.574566841125488, 0.08000000566244125, 0.01600000075995922, 1.040000081062317, 0.0, 0.0, 0.0, 0.0, 0.0, 1.613351214150654E9, 2021-02-14 20:06:54.150
93.0, 21.893373489379883, 24.73008918762207, 26.08580207824707, 18.106725692749023, 0.08000000566244125, 0.01600000075995922, 1.040000081062317, 0.0, 0.0, 0.0, 0.0, 0.0, 1.613351214150654E9, 2021-02-14 20:06:54.150
94.0, 20.98457908630371, 26.13629150390625, 21.893373489379883, 27.621030807495117, 0.08000000566244125, 0.01600000075995922, 1.040000081062317, 0.0, 0.0, 0.0, 0.0, 0.0, 1.613351214164284E9, 2021-02-14 20:06:54.164
94.0, 12.05369758605957, 13.375752449035645, 3.8408772945404053, 6.150265693664551, 0.08000000566244125, 0.01600000075995922, 1.040000081062317, 0.0, 0.0, 0.0, 0.0, 0.0, 1.613351214164284E9, 2021-02-14 20:06:54.164
95.0, 13.706733703613281, 21.192142486572266, 16.5266170501709, 20.133750915527344, 0.08000000566244125, 0.01600000075995922, 1.040000081062317, 0.0, 0.0, 0.0, 0.0, 0.0, 1.61335121417991E9, 2021-02-14 20:06:54.179
95.0, 22.323463439941406, 30.182863235473633, 30.61482048034668, 31.783540725708008, 0.08000000566244125, 0.01600000075995922, 1.040000081062317, 0.0, 0.0, 0.0, 0.0, 0.0, 1.61335121417991E9, 2021-02-14 20:06:54.179
96.0, 7.034751892089844, 7.358253002166748, 3.0629780292510986, 1.004163146018982, 0.08000000566244125, 0.01600000075995922, 1.040000081062317, 0.0, 0.0, 0.0, 0.0, 0.0, 1.613351214180697E9, 2021-02-14 20:06:54.180
96.0, 12.655821800231934, 17.220369338989258, 13.916167259216309, 16.535966873168945, 0.08000000566244125, 0.01600000075995922, 1.040000081062317, 0.0, 0.0, 0.0, 0.0, 0.0, 1.613351214180697E9, 2021-02-14 20:06:54.180
97.0, 20.326356887817383, 28.825279235839844, 26.77768325805664, 27.22460174560547, 0.08000000566244125, 0.01600000075995922, 1.040000081062317, 0.0, 0.0, 0.0, 0.0, 0.0, 1.613351214194223E9, 2021-02-14 20:06:54.194
97.0, 17.54387092590332, 24.58797264099121, 15.161554336547852, 15.73936939239502, 0.08000000566244125, 0.01600000075995922, 1.040000081062317, 0.0, 0.0, 0.0, 0.0, 0.0, 1.613351214194223E9, 2021-02-14 20:06:54.194
98.0, 12.57728385925293, 18.480714797973633, 7.5695576667785645, 11.707756996154785, 0.08000000566244125, 0.01600000075995922, 1.040000081062317, 0.0, 0.0, 0.0, 0.0, 0.0, 1.61335121420995E9, 2021-02-14 20:06:54.209
98.0, 19.256744384765625, 24.307479858398438, 21.934513092041016, 25.990434646606445, 0.08000000566244125, 0.01600000075995922, 1.040000081062317, 0.0, 0.0, 0.0, 0.0, 0.0, 1.61335121420995E9, 2021-02-14 20:06:54.209
99.0, 17.379314422607422, 26.5327205657959, 24.627241134643555, 26.626216888427734, 0.08000000566244125, 0.01600000075995922, 1.040000081062317, 0.0, 0.0, 0.0, 0.0, 0.0, 1.613351214210696E9, 2021-02-14 20:06:54.210
99.0, 12.229473114013672, 9.254382133483887, 2.4346749782562256, 5.716436862945557, 0.08000000566244125, 0.01600000075995922, 1.040000081062317, 0.0, 0.0, 0.0, 0.0, 0.0, 1.613351214210696E9, 2021-02-14 20:06:54.210
100.0, 19.320323944091797, 21.4501953125, 17.37557601928711, 18.73876953125, 0.08000000566244125, 0.01600000075995922, 1.040000081062317, 0.0, 0.0, 0.0, 0.0, 0.0, 1.613351214224908E9, 2021-02-14 20:06:54.224
100.0, 19.89626693725586, 29.913589477539062, 26.67296600341797, 35.38880157470703, 0.08000000566244125, 0.01600000075995922, 1.040000081062317, 0.0, 0.0, 0.0, 0.0, 0.0, 1.613351214224908E9, 2021-02-14 20:06:54.224
0.0, 4.839430332183838, 6.404578685760498, 3.048018455505371, 0.6058638095855713, 0.08000000566244125, 0.01600000075995922, 1.040000081062317, 0.0, 0.0, 0.0, 0.0, 0.0, 1.613351214225706E9, 2021-02-14 20:06:54.225
1.0, 12.281831741333008, 17.044593811035156, 20.371234893798828, 14.035844802856445, 0.08000000566244125, 0.01600000075995922, 1.040000081062317, 0.0, 0.0, 0.0, 0.0, 0.0, 1.613351214239257E9, 2021-02-14 20:06:54.239
1.0, 19.77659034729004, 32.262245178222656, 28.486818313598633, 29.799522399902344, 0.08000000566244125, 0.01600000075995922, 1.040000081062317, 0.0, 0.0, 0.0, 0.0, 0.0, 1.613351214239257E9, 2021-02-14 20:06:54.239
2.0, 15.0680570602417, 21.483856201171875, 16.070350646972656, 18.493804931640625, 0.08000000566244125, 0.01600000075995922, 1.040000081062317, 0.0, 0.0, 0.0, 0.0, 0.0, 1.613351214254935E9, 2021-02-14 20:06:54.254
2.0, 12.782978057861328, 14.38552474975586, 6.862716197967529, 12.177114486694336, 0.08000000566244125, 0.01600000075995922, 1.040000081062317, 0.0, 0.0, 0.0, 0.0, 0.0, 1.613351214254935E9, 2021-02-14 20:06:54.254
3.0, 17.379314422607422, 26.51028060913086, 21.205232620239258, 23.101362228393555, 0.08000000566244125, 0.01600000075995922, 1.040000081062317, 0.0, 0.0, 0.0, 0.0, 0.0, 1.613351214255683E9, 2021-02-14 20:06:54.255
3.0, 17.005325317382812, 28.98235511779785, 21.21271324157715, 29.174959182739258, 0.08000000566244125, 0.01600000075995922, 1.040000081062317, 0.0, 0.0, 0.0, 0.0, 0.0, 1.613351214255683E9, 2021-02-14 20:06:54.255
4.0, 9.641462326049805, 8.633559226989746, 6.152135372161865, 4.794551849365234, 0.08000000566244125, 0.01600000075995922, 1.040000081062317, 0.0, 0.0, 0.0, 0.0, 0.0, 1.613351214269365E9, 2021-02-14 20:06:54.269
4.0, 11.014005661010742, 22.18695640563965, 16.870689392089844, 15.752458572387695, 0.08000000566244125, 0.01600000075995922, 1.040000081062317, 0.0, 0.0, 0.0, 0.0, 0.0, 1.613351214269365E9, 2021-02-14 20:06:54.269
5.0, 20.838722229003906, 29.629358291625977, 31.127187728881836, 31.867687225341797, 0.08000000566244125, 0.01600000075995922, 1.040000081062317, 0.0, 0.0, 0.0, 0.0, 0.0, 1.613351214284964E9, 2021-02-14 20:06:54.284
5.0, 6.039938449859619, 10.245455741882324, 3.3584301471710205, 4.31210470199585, 0.08000000566244125, 0.01600000075995922, 1.040000081062317, 0.0, 0.0, 0.0, 0.0, 0.0, 1.613351214284964E9, 2021-02-14 20:06:54.284
6.0, 13.422500610351562, 16.13579750061035, 16.612634658813477, 17.816883087158203, 0.08000000566244125, 0.01600000075995922, 1.040000081062317, 0.0, 0.0, 0.0, 0.0, 0.0, 1.613351214285649E9, 2021-02-14 20:06:54.285
6.0, 18.415267944335938, 30.38855743408203, 25.674413681030273, 30.483924865722656, 0.08000000566244125, 0.01600000075995922, 1.040000081062317, 0.0, 0.0, 0.0, 0.0, 0.0, 1.613351214285649E9, 2021-02-14 20:06:54.285
7.0, 14.652928352355957, 18.27128028869629, 14.062024116516113, 16.096529006958008, 0.08000000566244125, 0.01600000075995922, 1.040000081062317, 0.0, 0.0, 0.0, 0.0, 0.0, 1.613351214299339E9, 2021-02-14 20:06:54.299
7.0, 13.362662315368652, 17.20541000366211, 10.999045372009277, 9.458207130432129, 0.08000000566244125, 0.01600000075995922, 1.040000081062317, 0.0, 0.0, 0.0, 0.0, 0.0, 1.613351214299339E9, 2021-02-14 20:06:54.299
8.0, 16.754751205444336, 20.690996170043945, 21.351089477539062, 22.40574073791504, 0.08000000566244125, 0.01600000075995922, 1.040000081062317, 0.0, 0.0, 0.0, 0.0, 0.0, 1.613351214314936E9, 2021-02-14 20:06:54.314
8.0, 18.94259262084961, 28.911296844482422, 22.9405460357666, 26.168079376220703, 0.08000000566244125, 0.01600000075995922, 1.040000081062317, 0.0, 0.0, 0.0, 0.0, 0.0, 1.613351214314936E9, 2021-02-14 20:06:54.314
9.0, 10.273505210876465, 10.38009262084961, 3.481846809387207, 1.8288110494613647, 0.08000000566244125, 0.01600000075995922, 1.040000081062317, 0.0, 0.0, 0.0, 0.0, 0.0, 1.613351214315681E9, 2021-02-14 20:06:54.315
9.0, 19.245525360107422, 22.19817543029785, 13.501038551330566, 20.146841049194336, 0.08000000566244125, 0.01600000075995922, 1.040000081062317, 0.0, 0.0, 0.0, 0.0, 0.0, 1.613351214315681E9, 2021-02-14 20:06:54.315
10.0, 24.578622817993164, 31.16645622253418, 29.881799697875977, 31.284263610839844, 0.08000000566244125, 0.01600000075995922, 1.040000081062317, 0.0, 0.0, 0.0, 0.0, 0.0, 1.613351214329341E9, 2021-02-14 20:06:54.329
10.0, 2.745086669921875, 7.4218316078186035, 6.791658401489258, 4.779592037200928, 0.08000000566244125, 0.01600000075995922, 1.040000081062317, 0.0, 0.0, 0.0, 0.0, 0.0, 1.613351214329341E9, 2021-02-14 20:06:54.329
11.0, 12.80541706085205, 19.767240524291992, 17.43915367126465, 15.666440963745117, 0.08000000566244125, 0.01600000075995922, 1.040000081062317, 0.0, 0.0, 0.0, 0.0, 0.0, 1.613351214345009E9, 2021-02-14 20:06:54.345
11.0, 19.436260223388672, 31.633943557739258, 26.579469680786133, 31.127187728881836, 0.08000000566244125, 0.01600000075995922, 1.040000081062317, 0.0, 0.0, 0.0, 0.0, 0.0, 1.613351214345009E9, 2021-02-14 20:06:54.345
12.0, 19.06226921081543, 16.12457847595215, 14.667887687683105, 18.336729049682617, 0.08000000566244125, 0.01600000075995922, 1.040000081062317, 0.0, 0.0, 0.0, 0.0, 0.0, 1.613351214345596E9, 2021-02-14 20:06:54.345
12.0, 9.970573425292969, 8.921531677246094, 8.452174186706543, 12.412728309631348, 0.08000000566244125, 0.01600000075995922, 1.040000081062317, 0.0, 0.0, 0.0, 0.0, 0.0, 1.613351214345596E9, 2021-02-14 20:06:54.345
13.0, 15.602862358093262, 19.13519859313965, 16.623855590820312, 17.689725875854492, 0.08000000566244125, 0.01600000075995922, 1.040000081062317, 0.0, 0.0, 0.0, 0.0, 0.0, 1.613351214359268E9, 2021-02-14 20:06:54.359
13.0, 15.180253982543945, 25.466848373413086, 21.560523986816406, 22.360862731933594, 0.08000000566244125, 0.01600000075995922, 1.040000081062317, 0.0, 0.0, 0.0, 0.0, 0.0, 1.613351214359268E9, 2021-02-14 20:06:54.359
14.0, 8.42225456237793, 9.026248931884766, 5.078783988952637, 0.699361264705658, 0.08000000566244125, 0.01600000075995922, 1.040000081062317, 0.0, 0.0, 0.0, 0.0, 0.0, 1.613351214374898E9, 2021-02-14 20:06:54.374
14.0, 17.585010528564453, 23.305187225341797, 20.217899322509766, 20.479692459106445, 0.08000000566244125, 0.01600000075995922, 1.040000081062317, 0.0, 0.0, 0.0, 0.0, 0.0, 1.613351214374898E9, 2021-02-14 20:06:54.374
15.0, 22.783470153808594, 35.11579132080078, 26.93475914001465, 31.273042678833008, 0.08000000566244125, 0.01600000075995922, 1.040000081062317, 0.0, 0.0, 0.0, 0.0, 0.0, 1.613351214375626E9, 2021-02-14 20:06:54.375
15.0, 11.840523719787598, 12.029388427734375, 3.8520970344543457, 4.551458358764648, 0.08000000566244125, 0.01600000075995922, 1.040000081062317, 0.0, 0.0, 0.0, 0.0, 0.0, 1.613351214375626E9, 2021-02-14 20:06:54.375
16.0, 19.582117080688477, 21.59979248046875, 13.90120792388916, 21.83353614807129, 0.08000000566244125, 0.01600000075995922, 1.040000081062317, 0.0, 0.0, 0.0, 0.0, 0.0, 1.613351214389411E9, 2021-02-14 20:06:54.389
16.0, 20.924739837646484, 32.09769058227539, 20.075782775878906, 27.091835021972656, 0.08000000566244125, 0.01600000075995922, 1.040000081062317, 0.0, 0.0, 0.0, 0.0, 0.0, 1.613351214389411E9, 2021-02-14 20:06:54.389
17.0, 17.001585006713867, 17.4298038482666, 7.8986687660217285, 9.342269897460938, 0.08000000566244125, 0.01600000075995922, 1.040000081062317, 0.0, 0.0, 0.0, 0.0, 0.0, 1.613351214404873E9, 2021-02-14 20:06:54.404
17.0, 10.172528266906738, 16.85011863708496, 9.589103698730469, 11.272058486938477, 0.08000000566244125, 0.01600000075995922, 1.040000081062317, 0.0, 0.0, 0.0, 0.0, 0.0, 1.613351214404873E9, 2021-02-14 20:06:54.404
18.0, 18.75185775756836, 27.83794593811035, 27.338668823242188, 26.007265090942383, 0.08000000566244125, 0.01600000075995922, 1.040000081062317, 0.0, 0.0, 0.0, 0.0, 0.0, 1.613351214405676E9, 2021-02-14 20:06:54.405
18.0, 21.040678024291992, 34.7081413269043, 31.13840675354004, 28.748611450195312, 0.08000000566244125, 0.01600000075995922, 1.040000081062317, 0.0, 0.0, 0.0, 0.0, 0.0, 1.613351214405676E9, 2021-02-14 20:06:54.405
19.0, 13.444940567016602, 9.246902465820312, 8.665348052978516, 8.792505264282227, 0.08000000566244125, 0.01600000075995922, 1.040000081062317, 0.0, 0.0, 0.0, 0.0, 0.0, 1.613351214419266E9, 2021-02-14 20:06:54.419
19.0, 16.406940460205078, 19.583986282348633, 20.805063247680664, 20.894821166992188, 0.08000000566244125, 0.01600000075995922, 1.040000081062317, 0.0, 0.0, 0.0, 0.0, 0.0, 1.613351214419266E9, 2021-02-14 20:06:54.419
20.0, 18.66584014892578, 32.3594856262207, 32.1781005859375, 32.04346466064453, 0.08000000566244125, 0.01600000075995922, 1.040000081062317, 0.0, 0.0, 0.0, 0.0, 0.0, 1.613351214434891E9, 2021-02-14 20:06:54.434
20.0, 10.101469993591309, 11.229049682617188, 6.847756862640381, 5.594890117645264, 0.08000000566244125, 0.01600000075995922, 1.040000081062317, 0.0, 0.0, 0.0, 0.0, 0.0, 1.613351214434891E9, 2021-02-14 20:06:54.434
21.0, 11.55255126953125, 21.88776397705078, 17.087602615356445, 20.064563751220703, 0.08000000566244125, 0.01600000075995922, 1.040000081062317, 0.0, 0.0, 0.0, 0.0, 0.0, 1.613351214435704E9, 2021-02-14 20:06:54.435
21.0, 19.432519912719727, 24.879684448242188, 24.634721755981445, 25.12464714050293, 0.08000000566244125, 0.01600000075995922, 1.040000081062317, 0.0, 0.0, 0.0, 0.0, 0.0, 1.613351214435704E9, 2021-02-14 20:06:54.435
22.0, 14.357476234436035, 13.458029747009277, 12.221993446350098, 14.929680824279785, 0.08000000566244125, 0.01600000075995922, 1.040000081062317, 0.0, 0.0, 0.0, 0.0, 0.0, 1.613351214449304E9, 2021-02-14 20:06:54.449
22.0, 9.495606422424316, 14.11999225616455, 9.839676856994629, 7.786471843719482, 0.08000000566244125, 0.01600000075995922, 1.040000081062317, 0.0, 0.0, 0.0, 0.0, 0.0, 1.613351214449304E9, 2021-02-14 20:06:54.449
23.0, 15.0680570602417, 26.697275161743164, 23.108840942382812, 23.995197296142578, 0.08000000566244125, 0.01600000075995922, 1.040000081062317, 0.0, 0.0, 0.0, 0.0, 0.0, 1.613351214464909E9, 2021-02-14 20:06:54.464
23.0, 18.7742977142334, 32.18370819091797, 25.962385177612305, 31.422639846801758, 0.08000000566244125, 0.01600000075995922, 1.040000081062317, 0.0, 0.0, 0.0, 0.0, 0.0, 1.613351214464909E9, 2021-02-14 20:06:54.464
24.0, 12.917613983154297, 15.615952491760254, 6.428887844085693, 7.27784538269043, 0.08000000566244125, 0.01600000075995922, 1.040000081062317, 0.0, 0.0, 0.0, 0.0, 0.0, 1.61335121446564E9, 2021-02-14 20:06:54.465
24.0, 19.088449478149414, 21.38661766052246, 16.863208770751953, 24.612281799316406, 0.08000000566244125, 0.01600000075995922, 1.040000081062317, 0.0, 0.0, 0.0, 0.0, 0.0, 1.61335121446564E9, 2021-02-14 20:06:54.465
25.0, 18.452667236328125, 28.91877555847168, 22.0018310546875, 29.462932586669922, 0.08000000566244125, 0.01600000075995922, 1.040000081062317, 0.0, 0.0, 0.0, 0.0, 0.0, 1.61335121447931E9, 2021-02-14 20:06:54.479
25.0, 12.711919784545898, 9.733089447021484, 0.31789150834083557, 3.152735710144043, 0.08000000566244125, 0.01600000075995922, 1.040000081062317, 0.0, 0.0, 0.0, 0.0, 0.0, 1.61335121447931E9, 2021-02-14 20:06:54.479
26.0, 18.168434143066406, 22.42630958557129, 16.657514572143555, 13.534697532653809, 0.08000000566244125, 0.01600000075995922, 1.040000081062317, 0.0, 0.0, 0.0, 0.0, 0.0, 1.613351214494953E9, 2021-02-14 20:06:54.494
26.0, 19.00617218017578, 26.38312339782715, 22.69371223449707, 27.222732543945312, 0.08000000566244125, 0.01600000075995922, 1.040000081062317, 0.0, 0.0, 0.0, 0.0, 0.0, 1.613351214494953E9, 2021-02-14 20:06:54.494
27.0, 11.960200309753418, 14.535120964050293, 14.98577880859375, 9.282431602478027, 0.08000000566244125, 0.01600000075995922, 1.040000081062317, 0.0, 0.0, 0.0, 0.0, 0.0, 1.613351214495645E9, 2021-02-14 20:06:54.495
27.0, 13.07843017578125, 13.611366271972656, 9.794797897338867, 10.097729682922363, 0.08000000566244125, 0.01600000075995922, 1.040000081062317, 0.0, 0.0, 0.0, 0.0, 0.0, 1.613351214495645E9, 2021-02-14 20:06:54.495
28.0, 18.157215118408203, 18.0169677734375, 20.565710067749023, 21.339868545532227, 0.08000000566244125, 0.01600000075995922, 1.040000081062317, 0.0, 0.0, 0.0, 0.0, 0.0, 1.613351214509303E9, 2021-02-14 20:06:54.509
28.0, 20.401153564453125, 27.501354217529297, 27.877214431762695, 29.87432098388672, 0.08000000566244125, 0.01600000075995922, 1.040000081062317, 0.0, 0.0, 0.0, 0.0, 0.0, 1.613351214509303E9, 2021-02-14 20:06:54.509
29.0, 10.39692211151123, 10.080900192260742, 2.5655713081359863, 8.758845329284668, 0.08000000566244125, 0.01600000075995922, 1.040000081062317, 0.0, 0.0, 0.0, 0.0, 0.0, 1.613351214524903E9, 2021-02-14 20:06:54.524
29.0, 12.076136589050293, 21.405317306518555, 14.226579666137695, 14.409834861755371, 0.08000000566244125, 0.01600000075995922, 1.040000081062317, 0.0, 0.0, 0.0, 0.0, 0.0, 1.613351214524903E9, 2021-02-14 20:06:54.524
30.0, 21.242631912231445, 25.601484298706055, 26.452312469482422, 27.192811965942383, 0.08000000566244125, 0.01600000075995922, 1.040000081062317, 0.0, 0.0, 0.0, 0.0, 0.0, 1.613351214525644E9, 2021-02-14 20:06:54.525
30.0, 8.141761779785156, 11.659137725830078, 3.1901347637176514, 2.25141978263855, 0.08000000566244125, 0.01600000075995922, 1.040000081062317, 0.0, 0.0, 0.0, 0.0, 0.0, 1.613351214525644E9, 2021-02-14 20:06:54.525
31.0, 15.150334358215332, 17.844932556152344, 20.861162185668945, 19.286664962768555, 0.08000000566244125, 0.01600000075995922, 1.040000081062317, 0.0, 0.0, 0.0, 0.0, 0.0, 1.613351214539285E9, 2021-02-14 20:06:54.539
31.0, 20.861162185668945, 27.123624801635742, 24.544963836669922, 31.493698120117188, 0.08000000566244125, 0.01600000075995922, 1.040000081062317, 0.0, 0.0, 0.0, 0.0, 0.0, 1.613351214539285E9, 2021-02-14 20:06:54.539
32.0, 17.86924171447754, 19.01926040649414, 11.806863784790039, 14.67162799835205, 0.09600000083446503, 0.01600000075995922, 1.040000081062317, 0.0, 0.0, 0.0, 0.0, 0.0, 1.613351214554918E9, 2021-02-14 20:06:54.554
32.0, 11.197260856628418, 18.551773071289062, 17.06890296936035, 8.22778034210205, 0.09600000083446503, 0.01600000075995922, 1.040000081062317, 0.0, 0.0, 0.0, 0.0, 0.0, 1.613351214554918E9, 2021-02-14 20:06:54.554
33.0, 19.06974983215332, 25.7697811126709, 21.30994987487793, 22.944286346435547, 0.09600000083446503, 0.01600000075995922, 1.040000081062317, 0.0, 0.0, 0.0, 0.0, 0.0, 1.61335121455565E9, 2021-02-14 20:06:54.555
33.0, 18.31429100036621, 28.09225845336914, 25.939945220947266, 30.83547592163086, 0.09600000083446503, 0.01600000075995922, 1.040000081062317, 0.0, 0.0, 0.0, 0.0, 0.0, 1.61335121455565E9, 2021-02-14 20:06:54.555
34.0, 11.754505157470703, 14.520161628723145, 6.327910900115967, 4.566417694091797, 0.09600000083446503, 0.01600000075995922, 1.040000081062317, 0.0, 0.0, 0.0, 0.0, 0.0, 1.613351214569299E9, 2021-02-14 20:06:54.569
34.0, 17.255897521972656, 25.08911895751953, 15.393427848815918, 19.04730987548828, 0.09600000083446503, 0.01600000075995922, 1.040000081062317, 0.0, 0.0, 0.0, 0.0, 0.0, 1.613351214569299E9, 2021-02-14 20:06:54.569
35.0, 17.90290069580078, 31.196374893188477, 24.99749183654785, 32.241676330566406, 0.09600000083446503, 0.01600000075995922, 1.040000081062317, 0.0, 0.0, 0.0, 0.0, 0.0, 1.613351214585E9, 2021-02-14 20:06:54.585
35.0, 10.976606369018555, 11.917191505432129, 7.259145736694336, 8.957060813903809, 0.09600000083446503, 0.01600000075995922, 1.040000081062317, 0.0, 0.0, 0.0, 0.0, 0.0, 1.613351214585E9, 2021-02-14 20:06:54.585
36.0, 13.893728256225586, 20.87799072265625, 15.344809532165527, 22.39826011657715, 0.09600000083446503, 0.01600000075995922, 1.040000081062317, 0.0, 0.0, 0.0, 0.0, 0.0, 1.613351214585752E9, 2021-02-14 20:06:54.585
36.0, 19.49983787536621, 24.498214721679688, 25.233104705810547, 25.969865798950195, 0.09600000083446503, 0.01600000075995922, 1.040000081062317, 0.0, 0.0, 0.0, 0.0, 0.0, 1.613351214585752E9, 2021-02-14 20:06:54.585
37.0, 7.236706256866455, 16.4910888671875, 11.343116760253906, 11.967679977416992, 0.09600000083446503, 0.01600000075995922, 1.040000081062317, 0.0, 0.0, 0.0, 0.0, 0.0, 1.613351214599307E9, 2021-02-14 20:06:54.599
37.0, 13.085909843444824, 18.289979934692383, 12.734359741210938, 7.730373382568359, 0.09600000083446503, 0.01600000075995922, 1.040000081062317, 0.0, 0.0, 0.0, 0.0, 0.0, 1.613351214599307E9, 2021-02-14 20:06:54.599
38.0, 15.382208824157715, 23.993328094482422, 23.385595321655273, 25.64075469970703, 0.09600000083446503, 0.01600000075995922, 1.040000081062317, 0.0, 0.0, 0.0, 0.0, 0.0, 1.613351214614969E9, 2021-02-14 20:06:54.614
38.0, 17.82062339782715, 21.59979248046875, 28.370880126953125, 28.819669723510742, 0.09600000083446503, 0.01600000075995922, 1.040000081062317, 0.0, 0.0, 0.0, 0.0, 0.0, 1.613351214614969E9, 2021-02-14 20:06:54.614
39.0, 11.941500663757324, 9.669511795043945, 2.943301200866699, 8.54941177368164, 0.09600000083446503, 0.01600000075995922, 1.040000081062317, 0.0, 0.0, 0.0, 0.0, 0.0, 1.613351214615699E9, 2021-02-14 20:06:54.615
39.0, 16.036691665649414, 19.389511108398438, 15.752458572387695, 18.905193328857422, 0.09600000083446503, 0.01600000075995922, 1.040000081062317, 0.0, 0.0, 0.0, 0.0, 0.0, 1.613351214615699E9, 2021-02-14 20:06:54.615
40.0, 17.41671371459961, 31.697521209716797, 26.384994506835938, 32.74282455444336, 0.09600000083446503, 0.01600000075995922, 1.040000081062317, 0.0, 0.0, 0.0, 0.0, 0.0, 1.613351214629229E9, 2021-02-14 20:06:54.629
40.0, 10.793351173400879, 11.689057350158691, 6.189534664154053, 1.8063716888427734, 0.09600000083446503, 0.01600000075995922, 1.040000081062317, 0.0, 0.0, 0.0, 0.0, 0.0, 1.613351214629229E9, 2021-02-14 20:06:54.629
41.0, 16.025470733642578, 20.230989456176758, 16.15262794494629, 17.308256149291992, 0.09600000083446503, 0.01600000075995922, 1.040000081062317, 0.0, 0.0, 0.0, 0.0, 0.0, 1.613351214644936E9, 2021-02-14 20:06:54.644
41.0, 17.906641006469727, 31.41329002380371, 26.033443450927734, 31.029949188232422, 0.09600000083446503, 0.01600000075995922, 1.040000081062317, 0.0, 0.0, 0.0, 0.0, 0.0, 1.613351214644936E9, 2021-02-14 20:06:54.644
42.0, 20.113182067871094, 19.415691375732422, 9.929434776306152, 19.230566024780273, 0.08000000566244125, 0.01600000075995922, 1.040000081062317, 0.0, 0.0, 0.0, 0.0, 0.0, 1.613351214645676E9, 2021-02-14 20:06:54.645
42.0, 12.079876899719238, 14.927810668945312, 12.412728309631348, 10.486679077148438, 0.08000000566244125, 0.01600000075995922, 1.040000081062317, 0.0, 0.0, 0.0, 0.0, 0.0, 1.613351214645676E9, 2021-02-14 20:06:54.645
43.0, 17.82810401916504, 25.003101348876953, 24.817975997924805, 22.74981117248535, 0.08000000566244125, 0.01600000075995922, 1.040000081062317, 0.0, 0.0, 0.0, 0.0, 0.0, 1.613351214659255E9, 2021-02-14 20:06:54.659
43.0, 17.128742218017578, 28.75796127319336, 26.17181968688965, 30.308149337768555, 0.08000000566244125, 0.01600000075995922, 1.040000081062317, 0.0, 0.0, 0.0, 0.0, 0.0, 1.613351214659255E9, 2021-02-14 20:06:54.659
44.0, 8.437213897705078, 9.340399742126465, 6.342870235443115, 0.9125356078147888, 0.08000000566244125, 0.01600000075995922, 1.040000081062317, 0.0, 0.0, 0.0, 0.0, 0.0, 1.613351214674968E9, 2021-02-14 20:06:54.674
44.0, 15.206433296203613, 22.160778045654297, 20.805063247680664, 17.970218658447266, 0.08000000566244125, 0.01600000075995922, 1.040000081062317, 0.0, 0.0, 0.0, 0.0, 0.0, 1.613351214674968E9, 2021-02-14 20:06:54.674
45.0, 20.401153564453125, 31.013120651245117, 31.32166290283203, 31.819068908691406, 0.08000000566244125, 0.01600000075995922, 1.040000081062317, 0.0, 0.0, 0.0, 0.0, 0.0, 1.613351214675709E9, 2021-02-14 20:06:54.675
45.0, 8.033305168151855, 10.73912239074707, 0.5385456085205078, 6.832797050476074, 0.08000000566244125, 0.01600000075995922, 1.040000081062317, 0.0, 0.0, 0.0, 0.0, 0.0, 1.613351214675709E9, 2021-02-14 20:06:54.675
46.0, 12.723139762878418, 16.068479537963867, 9.996752738952637, 15.206433296203613, 0.08000000566244125, 0.01600000075995922, 1.040000081062317, 0.0, 0.0, 0.0, 0.0, 0.0, 1.613351214689308E9, 2021-02-14 20:06:54.689
46.0, 24.817975997924805, 32.681114196777344, 31.848987579345703, 35.70108413696289, 0.08000000566244125, 0.01600000075995922, 1.040000081062317, 0.0, 0.0, 0.0, 0.0, 0.0, 1.613351214689308E9, 2021-02-14 20:06:54.689
47.0, 6.70564079284668, 11.958330154418945, 7.715413570404053, 9.001938819885254, 0.08000000566244125, 0.01600000075995922, 1.040000081062317, 0.0, 0.0, 0.0, 0.0, 0.0, 1.613351214704957E9, 2021-02-14 20:06:54.704
47.0, 11.537590980529785, 17.46720314025879, 11.522631645202637, 11.406694412231445, 0.08000000566244125, 0.01600000075995922, 1.040000081062317, 0.0, 0.0, 0.0, 0.0, 0.0, 1.613351214704957E9, 2021-02-14 20:06:54.704
48.0, 18.175912857055664, 23.050872802734375, 22.125247955322266, 25.71181297302246, 0.08000000566244125, 0.01600000075995922, 1.040000081062317, 0.0, 0.0, 0.0, 0.0, 0.0, 1.613351214705696E9, 2021-02-14 20:06:54.705
48.0, 16.952966690063477, 28.29047393798828, 20.853681564331055, 30.1061954498291, 0.08000000566244125, 0.01600000075995922, 1.040000081062317, 0.0, 0.0, 0.0, 0.0, 0.0, 1.613351214705696E9, 2021-02-14 20:06:54.705
49.0, 12.513705253601074, 13.465509414672852, 8.261439323425293, 7.7602925300598145, 0.08000000566244125, 0.01600000075995922, 1.040000081062317, 0.0, 0.0, 0.0, 0.0, 0.0, 1.613351214719276E9, 2021-02-14 20:06:54.719
49.0, 18.3928279876709, 23.249088287353516, 18.606002807617188, 15.913274765014648, 0.08000000566244125, 0.01600000075995922, 1.040000081062317, 0.0, 0.0, 0.0, 0.0, 0.0, 1.613351214719276E9, 2021-02-14 20:06:54.719
50.0, 22.59647560119629, 28.94869613647461, 31.579715728759766, 31.826549530029297, 0.08000000566244125, 0.01600000075995922, 1.040000081062317, 0.0, 0.0, 0.0, 0.0, 0.0, 1.613351214734926E9, 2021-02-14 20:06:54.734
50.0, 13.085909843444824, 10.271635055541992, -1.873689889907837, 2.5206925868988037, 0.08000000566244125, 0.01600000075995922, 1.040000081062317, 0.0, 0.0, 0.0, 0.0, 0.0, 1.613351214734926E9, 2021-02-14 20:06:54.734
51.0, 12.943793296813965, 21.955081939697266, 10.995306015014648, 17.502731323242188, 0.08000000566244125, 0.01600000075995922, 1.040000081062317, 0.0, 0.0, 0.0, 0.0, 0.0, 1.61335121473572E9, 2021-02-14 20:06:54.735
51.0, 17.8056640625, 24.954483032226562, 31.33662223815918, 28.273643493652344, 0.08000000566244125, 0.01600000075995922, 1.040000081062317, 0.0, 0.0, 0.0, 0.0, 0.0, 1.61335121473572E9, 2021-02-14 20:06:54.735
52.0, 10.785871505737305, 16.109619140625, 12.603463172912598, 15.789857864379883, 0.08000000566244125, 0.01600000075995922, 1.040000081062317, 0.0, 0.0, 0.0, 0.0, 0.0, 1.613351214749291E9, 2021-02-14 20:06:54.749
52.0, 11.406694412231445, 14.378045082092285, 8.919661521911621, 6.630842685699463, 0.08000000566244125, 0.01600000075995922, 1.040000081062317, 0.0, 0.0, 0.0, 0.0, 0.0, 1.613351214749291E9, 2021-02-14 20:06:54.749
53.0, 16.71735191345215, 26.031574249267578, 19.828948974609375, 20.416114807128906, 0.08000000566244125, 0.01600000075995922, 1.040000081062317, 0.0, 0.0, 0.0, 0.0, 0.0, 1.613351214764968E9, 2021-02-14 20:06:54.764
53.0, 18.841615676879883, 28.316652297973633, 19.114627838134766, 26.837522506713867, 0.08000000566244125, 0.01600000075995922, 1.040000081062317, 0.0, 0.0, 0.0, 0.0, 0.0, 1.613351214764968E9, 2021-02-14 20:06:54.764
54.0, 13.789011001586914, 11.707756996154785, 5.662208557128906, 9.57788372039795, 0.08000000566244125, 0.01600000075995922, 1.040000081062317, 0.0, 0.0, 0.0, 0.0, 0.0, 1.613351214765677E9, 2021-02-14 20:06:54.765
54.0, 13.231765747070312, 19.625125885009766, 17.966480255126953, 15.11667537689209, 0.08000000566244125, 0.01600000075995922, 1.040000081062317, 0.0, 0.0, 0.0, 0.0, 0.0, 1.613351214765677E9, 2021-02-14 20:06:54.765
55.0, 20.46099281311035, 29.532119750976562, 25.27424430847168, 25.9511661529541, 0.08000000566244125, 0.01600000075995922, 1.040000081062317, 0.0, 0.0, 0.0, 0.0, 0.0, 1.613351214779303E9, 2021-02-14 20:06:54.779
55.0, 10.064070701599121, 11.06075382232666, 7.678014755249023, 10.01919174194336, 0.08000000566244125, 0.01600000075995922, 1.040000081062317, 0.0, 0.0, 0.0, 0.0, 0.0, 1.613351214779303E9, 2021-02-14 20:06:54.779
56.0, 12.169634819030762, 22.29167366027832, 19.032350540161133, 22.9293270111084, 0.08000000566244125, 0.01600000075995922, 1.040000081062317, 0.0, 0.0, 0.0, 0.0, 0.0, 1.613351214795171E9, 2021-02-14 20:06:54.795
56.0, 15.520585060119629, 27.79680633544922, 25.95864486694336, 29.735944747924805, 0.08000000566244125, 0.01600000075995922, 1.040000081062317, 0.0, 0.0, 0.0, 0.0, 0.0, 1.613351214795171E9, 2021-02-14 20:06:54.795
57.0, 12.782978057861328, 18.918283462524414, 15.25879192352295, 13.976006507873535, 0.08000000566244125, 0.01600000075995922, 1.040000081062317, 0.0, 0.0, 0.0, 0.0, 0.0, 1.613351214795705E9, 2021-02-14 20:06:54.795
57.0, 13.325263977050781, 20.227249145507812, 11.10002326965332, 11.773204803466797, 0.08000000566244125, 0.01600000075995922, 1.040000081062317, 0.0, 0.0, 0.0, 0.0, 0.0, 1.613351214795705E9, 2021-02-14 20:06:54.795
58.0, 20.894821166992188, 24.973182678222656, 18.83039665222168, 21.145395278930664, 0.08000000566244125, 0.01600000075995922, 1.040000081062317, 0.0, 0.0, 0.0, 0.0, 0.0, 1.613351214809284E9, 2021-02-14 20:06:54.809
58.0, 18.677061080932617, 23.76145362854004, 20.565710067749023, 25.319122314453125, 0.08000000566244125, 0.01600000075995922, 1.040000081062317, 0.0, 0.0, 0.0, 0.0, 0.0, 1.613351214809284E9, 2021-02-14 20:06:54.809
59.0, 9.357229232788086, 11.318807601928711, -0.5946440696716309, 3.672581672668457, 0.08000000566244125, 0.01600000075995922, 1.040000081062317, 0.0, 0.0, 0.0, 0.0, 0.0, 1.613351214824969E9, 2021-02-14 20:06:54.824
59.0, 13.833889961242676, 20.83685302734375, 25.87262725830078, 16.242385864257812, 0.08000000566244125, 0.01600000075995922, 1.040000081062317, 0.0, 0.0, 0.0, 0.0, 0.0, 1.613351214824969E9, 2021-02-14 20:06:54.824
60.0, 19.92618751525879, 26.585079193115234, 29.103900909423828, 33.64413833618164, 0.08000000566244125, 0.01600000075995922, 1.040000081062317, 0.0, 0.0, 0.0, 0.0, 0.0, 1.613351214825698E9, 2021-02-14 20:06:54.825
60.0, 13.90120792388916, 7.350773334503174, 5.493913173675537, 7.7602925300598145, 0.08000000566244125, 0.01600000075995922, 1.040000081062317, 0.0, 0.0, 0.0, 0.0, 0.0, 1.613351214825698E9, 2021-02-14 20:06:54.825
61.0, 13.953566551208496, 26.00913429260254, 15.685140609741211, 14.17422103881836, 0.08000000566244125, 0.01600000075995922, 1.040000081062317, 0.0, 0.0, 0.0, 0.0, 0.0, 1.613351214839334E9, 2021-02-14 20:06:54.839
61.0, 19.683094024658203, 24.78618621826172, 25.046110153198242, 28.299823760986328, 0.08000000566244125, 0.01600000075995922, 1.040000081062317, 0.0, 0.0, 0.0, 0.0, 0.0, 1.613351214839334E9, 2021-02-14 20:06:54.839
62.0, 15.154074668884277, 22.86387825012207, 10.363263130187988, 15.064316749572754, 0.08000000566244125, 0.01600000075995922, 1.040000081062317, 0.0, 0.0, 0.0, 0.0, 0.0, 1.613351214854966E9, 2021-02-14 20:06:54.854
62.0, 12.274352073669434, 9.7742280960083, 11.500192642211914, 10.273505210876465, 0.08000000566244125, 0.01600000075995922, 1.040000081062317, 0.0, 0.0, 0.0, 0.0, 0.0, 1.613351214854966E9, 2021-02-14 20:06:54.854
63.0, 13.059730529785156, 23.82503318786621, 17.910381317138672, 20.517091751098633, 0.08000000566244125, 0.01600000075995922, 1.040000081062317, 0.0, 0.0, 0.0, 0.0, 0.0, 1.613351214855712E9, 2021-02-14 20:06:54.855
63.0, 25.281723022460938, 29.217967987060547, 30.88409423828125, 32.35387420654297, 0.08000000566244125, 0.01600000075995922, 1.040000081062317, 0.0, 0.0, 0.0, 0.0, 0.0, 1.613351214855712E9, 2021-02-14 20:06:54.855
64.0, 9.929434776306152, 11.891012191772461, 4.816991329193115, 11.032705307006836, 0.08000000566244125, 0.01600000075995922, 1.040000081062317, 0.0, 0.0, 0.0, 0.0, 0.0, 1.613351214869322E9, 2021-02-14 20:06:54.869
64.0, 16.126447677612305, 20.500261306762695, 15.273751258850098, 20.71530532836914, 0.08000000566244125, 0.01600000075995922, 1.040000081062317, 0.0, 0.0, 0.0, 0.0, 0.0, 1.613351214869322E9, 2021-02-14 20:06:54.869
65.0, 19.40260124206543, 30.964502334594727, 24.881553649902344, 32.51095199584961, 0.08000000566244125, 0.01600000075995922, 1.040000081062317, 0.0, 0.0, 0.0, 0.0, 0.0, 1.613351214884906E9, 2021-02-14 20:06:54.884
65.0, 11.709627151489258, 15.941323280334473, 4.81325101852417, 6.357830047607422, 0.08000000566244125, 0.01600000075995922, 1.040000081062317, 0.0, 0.0, 0.0, 0.0, 0.0, 1.613351214884906E9, 2021-02-14 20:06:54.884
66.0, 11.881662368774414, 21.28938102722168, 13.53095817565918, 13.953566551208496, 0.08000000566244125, 0.01600000075995922, 1.040000081062317, 0.0, 0.0, 0.0, 0.0, 0.0, 1.613351214885646E9, 2021-02-14 20:06:54.885
66.0, 17.502731323242188, 25.455629348754883, 23.221038818359375, 33.51324462890625, 0.08000000566244125, 0.01600000075995922, 1.040000081062317, 0.0, 0.0, 0.0, 0.0, 0.0, 1.613351214885646E9, 2021-02-14 20:06:54.885
67.0, 12.715660095214844, 18.933242797851562, 13.893728256225586, 13.5421781539917, 0.08000000566244125, 0.01600000075995922, 1.040000081062317, 0.0, 0.0, 0.0, 0.0, 0.0, 1.613351214899291E9, 2021-02-14 20:06:54.899
67.0, 8.164201736450195, 15.481315612792969, 10.763432502746582, 12.259391784667969, 0.08000000566244125, 0.01600000075995922, 1.040000081062317, 0.0, 0.0, 0.0, 0.0, 0.0, 1.613351214899291E9, 2021-02-14 20:06:54.899
68.0, 18.549903869628906, 22.534767150878906, 22.63013458251953, 23.460391998291016, 0.08000000566244125, 0.01600000075995922, 1.040000081062317, 0.0, 0.0, 0.0, 0.0, 0.0, 1.613351214914922E9, 2021-02-14 20:06:54.914
68.0, 16.474258422851562, 27.621030807495117, 24.133573532104492, 28.11282730102539, 0.08000000566244125, 0.01600000075995922, 1.040000081062317, 0.0, 0.0, 0.0, 0.0, 0.0, 1.613351214914922E9, 2021-02-14 20:06:54.914
69.0, 13.112089157104492, 12.590373039245605, 9.895774841308594, 3.422008514404297, 0.08000000566244125, 0.01600000075995922, 1.040000081062317, 0.0, 0.0, 0.0, 0.0, 0.0, 1.613351214915643E9, 2021-02-14 20:06:54.915
69.0, 17.016544342041016, 20.489042282104492, 20.2702579498291, 15.430827140808105, 0.08000000566244125, 0.01600000075995922, 1.040000081062317, 0.0, 0.0, 0.0, 0.0, 0.0, 1.613351214915643E9, 2021-02-14 20:06:54.915
70.0, 21.235151290893555, 28.73552131652832, 24.61602210998535, 31.564756393432617, 0.08000000566244125, 0.01600000075995922, 1.040000081062317, 0.0, 0.0, 0.0, 0.0, 0.0, 1.613351214929299E9, 2021-02-14 20:06:54.929
70.0, 9.776098251342773, 3.524855613708496, 3.34721040725708, 2.913382053375244, 0.08000000566244125, 0.01600000075995922, 1.040000081062317, 0.0, 0.0, 0.0, 0.0, 0.0, 1.613351214929299E9, 2021-02-14 20:06:54.929
71.0, 13.25794506072998, 18.07306671142578, 18.35542869567871, 16.84450912475586, 0.08000000566244125, 0.01600000075995922, 1.040000081062317, 0.0, 0.0, 0.0, 0.0, 0.0, 1.61335121494492E9, 2021-02-14 20:06:54.944
71.0, 17.237199783325195, 25.953035354614258, 22.869487762451172, 28.161447525024414, 0.08000000566244125, 0.01600000075995922, 1.040000081062317, 0.0, 0.0, 0.0, 0.0, 0.0, 1.61335121494492E9, 2021-02-14 20:06:54.944
72.0, 13.702993392944336, 20.436683654785156, 13.115829467773438, 14.409834861755371, 0.08000000566244125, 0.01600000075995922, 1.040000081062317, 0.0, 0.0, 0.0, 0.0, 0.0, 1.613351214945642E9, 2021-02-14 20:06:54.945
72.0, 9.94813346862793, 17.168010711669922, 7.891189098358154, 13.463640213012695, 0.08000000566244125, 0.01600000075995922, 1.040000081062317, 0.0, 0.0, 0.0, 0.0, 0.0, 1.613351214945642E9, 2021-02-14 20:06:54.945
73.0, 18.168434143066406, 29.659276962280273, 20.528310775756836, 16.945486068725586, 0.08000000566244125, 0.01600000075995922, 1.040000081062317, 0.0, 0.0, 0.0, 0.0, 0.0, 1.613351214959261E9, 2021-02-14 20:06:54.959
73.0, 22.74981117248535, 28.339092254638672, 25.468719482421875, 24.788057327270508, 0.08000000566244125, 0.01600000075995922, 1.040000081062317, 0.0, 0.0, 0.0, 0.0, 0.0, 1.613351214959261E9, 2021-02-14 20:06:54.959
74.0, 11.227179527282715, 12.983062744140625, 5.183501243591309, 7.307764530181885, 0.08000000566244125, 0.01600000075995922, 1.040000081062317, 0.0, 0.0, 0.0, 0.0, 0.0, 1.613351214975023E9, 2021-02-14 20:06:54.975
74.0, 15.292450904846191, 22.830219268798828, 16.46303939819336, 17.469072341918945, 0.08000000566244125, 0.01600000075995922, 1.040000081062317, 0.0, 0.0, 0.0, 0.0, 0.0, 1.613351214975023E9, 2021-02-14 20:06:54.975
75.0, 17.285818099975586, 28.0286808013916, 32.73908233642578, 28.486818313598633, 0.08000000566244125, 0.01600000075995922, 1.040000081062317, 0.0, 0.0, 0.0, 0.0, 0.0, 1.613351214975644E9, 2021-02-14 20:06:54.975
75.0, 7.689234256744385, 4.800161361694336, 7.3264641761779785, 1.15562903881073, 0.08000000566244125, 0.01600000075995922, 1.040000081062317, 0.0, 0.0, 0.0, 0.0, 0.0, 1.613351214975644E9, 2021-02-14 20:06:54.975
76.0, 13.362662315368652, 22.628265380859375, 16.477998733520508, 14.15178108215332, 0.08000000566244125, 0.01600000075995922, 1.040000081062317, 0.0, 0.0, 0.0, 0.0, 0.0, 1.613351214989257E9, 2021-02-14 20:06:54.989
76.0, 19.024871826171875, 25.904417037963867, 27.39476776123047, 29.64618682861328, 0.08000000566244125, 0.01600000075995922, 1.040000081062317, 0.0, 0.0, 0.0, 0.0, 0.0, 1.613351214989257E9, 2021-02-14 20:06:54.989
77.0, 13.048510551452637, 19.40073013305664, 9.308610916137695, 15.026918411254883, 0.08000000566244125, 0.01600000075995922, 1.040000081062317, 0.0, 0.0, 0.0, 0.0, 0.0, 1.613351215004914E9, 2021-02-14 20:06:55.004
77.0, 14.095683097839355, 21.468894958496094, 9.050558090209961, 18.145994186401367, 0.08000000566244125, 0.01600000075995922, 1.040000081062317, 0.0, 0.0, 0.0, 0.0, 0.0, 1.613351215004914E9, 2021-02-14 20:06:55.004
78.0, 18.587303161621094, 22.781600952148438, 20.434812545776367, 24.309349060058594, 0.08000000566244125, 0.01600000075995922, 1.040000081062317, 0.0, 0.0, 0.0, 0.0, 0.0, 1.613351215005707E9, 2021-02-14 20:06:55.005
78.0, 17.40175437927246, 24.58049201965332, 24.350488662719727, 26.830041885375977, 0.08000000566244125, 0.01600000075995922, 1.040000081062317, 0.0, 0.0, 0.0, 0.0, 0.0, 1.613351215005707E9, 2021-02-14 20:06:55.005
79.0, 7.449880599975586, 8.599900245666504, 3.7436399459838867, 3.938114643096924, 0.08000000566244125, 0.01600000075995922, 1.040000081062317, 0.0, 0.0, 0.0, 0.0, 0.0, 1.61335121501926E9, 2021-02-14 20:06:55.019
79.0, 14.907240867614746, 23.17428970336914, 23.47161293029785, 16.945486068725586, 0.08000000566244125, 0.01600000075995922, 1.040000081062317, 0.0, 0.0, 0.0, 0.0, 0.0, 1.61335121501926E9, 2021-02-14 20:06:55.019
80.0, 20.199199676513672, 29.292766571044922, 30.626041412353516, 38.17689895629883, 0.08000000566244125, 0.01600000075995922, 1.040000081062317, 0.0, 0.0, 0.0, 0.0, 0.0, 1.613351215034654E9, 2021-02-14 20:06:55.034
80.0, 13.863809585571289, 11.049534797668457, 1.9372681379318237, 5.0451250076293945, 0.08000000566244125, 0.01600000075995922, 1.040000081062317, 0.0, 0.0, 0.0, 0.0, 0.0, 1.613351215034654E9, 2021-02-14 20:06:55.034
81.0, 16.047910690307617, 23.619338989257812, 19.42504119873047, 18.527463912963867, 0.08000000566244125, 0.01600000075995922, 1.040000081062317, 0.0, 0.0, 0.0, 0.0, 0.0, 1.613351215049891E9, 2021-02-14 20:06:55.049
81.0, 20.41237449645996, 24.08682632446289, 26.938499450683594, 29.866840362548828, 0.08000000566244125, 0.01600000075995922, 1.040000081062317, 0.0, 0.0, 0.0, 0.0, 0.0, 1.613351215049891E9, 2021-02-14 20:06:55.049
82.0, 17.65606689453125, 15.77676773071289, 16.593936920166016, 10.303424835205078, 0.08000000566244125, 0.01600000075995922, 1.040000081062317, 0.0, 0.0, 0.0, 0.0, 0.0, 1.613351215050648E9, 2021-02-14 20:06:55.050
82.0, 12.51744556427002, 20.990188598632812, 12.794198036193848, 21.94573211669922, 0.08000000566244125, 0.01600000075995922, 1.040000081062317, 0.0, 0.0, 0.0, 0.0, 0.0, 1.613351215050648E9, 2021-02-14 20:06:55.050
83.0, 22.903146743774414, 26.84313201904297, 15.11667537689209, 21.62784194946289, 0.08000000566244125, 0.01600000075995922, 1.040000081062317, 0.0, 0.0, 0.0, 0.0, 0.0, 1.613351215064901E9, 2021-02-14 20:06:55.064
83.0, 16.309703826904297, 22.938676834106445, 25.730512619018555, 22.81338882446289, 0.08000000566244125, 0.01600000075995922, 1.040000081062317, 0.0, 0.0, 0.0, 0.0, 0.0, 1.613351215064901E9, 2021-02-14 20:06:55.064
84.0, 9.072997093200684, 11.891012191772461, 2.883462905883789, 6.189534664154053, 0.08000000566244125, 0.01600000075995922, 1.040000081062317, 0.0, 0.0, 0.0, 0.0, 0.0, 1.61335121506567E9, 2021-02-14 20:06:55.065
84.0, 16.825809478759766, 21.184663772583008, 20.66668701171875, 17.513952255249023, 0.08000000566244125, 0.01600000075995922, 1.040000081062317, 0.0, 0.0, 0.0, 0.0, 0.0, 1.61335121506567E9, 2021-02-14 20:06:55.065
85.0, 19.72049331665039, 26.091411590576172, 26.426132202148438, 30.689619064331055, 0.08000000566244125, 0.01600000075995922, 1.040000081062317, 0.0, 0.0, 0.0, 0.0, 0.0, 1.613351215079232E9, 2021-02-14 20:06:55.079
85.0, 7.375082492828369, 12.399638175964355, 1.9709272384643555, 1.398722529411316, 0.08000000566244125, 0.01600000075995922, 1.040000081062317, 0.0, 0.0, 0.0, 0.0, 0.0, 1.613351215079232E9, 2021-02-14 20:06:55.079
86.0, 11.530111312866211, 17.366226196289062, 13.014851570129395, 12.371588706970215, 0.08000000566244125, 0.01600000075995922, 1.040000081062317, 0.0, 0.0, 0.0, 0.0, 0.0, 1.613351215094904E9, 2021-02-14 20:06:55.094
86.0, 20.479692459106445, 27.86786460876465, 25.805309295654297, 29.672367095947266, 0.08000000566244125, 0.01600000075995922, 1.040000081062317, 0.0, 0.0, 0.0, 0.0, 0.0, 1.613351215094904E9, 2021-02-14 20:06:55.094
87.0, 16.421899795532227, 19.752281188964844, 10.000492095947266, 10.542778015136719, 0.08000000566244125, 0.01600000075995922, 1.040000081062317, 0.0, 0.0, 0.0, 0.0, 0.0, 1.613351215095605E9, 2021-02-14 20:06:55.095
87.0, 14.630488395690918, 17.987049102783203, 15.864655494689941, 14.450973510742188, 0.08000000566244125, 0.01600000075995922, 1.040000081062317, 0.0, 0.0, 0.0, 0.0, 0.0, 1.613351215095605E9, 2021-02-14 20:06:55.095
88.0, 19.78407096862793, 25.062938690185547, 22.660053253173828, 24.062517166137695, 0.08000000566244125, 0.01600000075995922, 1.040000081062317, 0.0, 0.0, 0.0, 0.0, 0.0, 1.613351215109329E9, 2021-02-14 20:06:55.109
88.0, 21.328649520874023, 28.40266990661621, 22.09532928466797, 26.493452072143555, 0.08000000566244125, 0.01600000075995922, 1.040000081062317, 0.0, 0.0, 0.0, 0.0, 0.0, 1.613351215109329E9, 2021-02-14 20:06:55.109
89.0, 10.236105918884277, 7.036621570587158, 7.023531913757324, 4.435521125793457, 0.08000000566244125, 0.01600000075995922, 1.040000081062317, 0.0, 0.0, 0.0, 0.0, 0.0, 1.613351215124989E9, 2021-02-14 20:06:55.124
89.0, 14.080723762512207, 21.079946517944336, 23.864301681518555, 21.59792137145996, 0.08000000566244125, 0.01600000075995922, 1.040000081062317, 0.0, 0.0, 0.0, 0.0, 0.0, 1.613351215124989E9, 2021-02-14 20:06:55.124
90.0, 23.66982650756836, 32.879329681396484, 27.92209243774414, 33.12803268432617, 0.08000000566244125, 0.01600000075995922, 1.040000081062317, 0.0, 0.0, 0.0, 0.0, 0.0, 1.613351215125714E9, 2021-02-14 20:06:55.125
90.0, 7.670534610748291, 13.667464256286621, 5.531311988830566, 8.463393211364746, 0.08000000566244125, 0.01600000075995922, 1.040000081062317, 0.0, 0.0, 0.0, 0.0, 0.0, 1.613351215125714E9, 2021-02-14 20:06:55.125
91.0, 15.348549842834473, 21.072465896606445, 15.969372749328613, 20.92099952697754, 0.08000000566244125, 0.01600000075995922, 1.040000081062317, 0.0, 0.0, 0.0, 0.0, 0.0, 1.613351215139538E9, 2021-02-14 20:06:55.139
91.0, 18.303070068359375, 29.016014099121094, 22.79469108581543, 26.620607376098633, 0.08000000566244125, 0.01600000075995922, 1.040000081062317, 0.0, 0.0, 0.0, 0.0, 0.0, 1.613351215139538E9, 2021-02-14 20:06:55.139
92.0, 15.12789535522461, 13.921777725219727, 14.465932846069336, 12.132235527038574, 0.08000000566244125, 0.01600000075995922, 1.040000081062317, 0.0, 0.0, 0.0, 0.0, 0.0, 1.613351215154938E9, 2021-02-14 20:06:55.154
92.0, 9.342269897460938, 13.484209060668945, 8.238999366760254, 6.795398235321045, 0.08000000566244125, 0.01600000075995922, 1.040000081062317, 0.0, 0.0, 0.0, 0.0, 0.0, 1.613351215154938E9, 2021-02-14 20:06:55.154
93.0, 18.78177833557129, 27.822986602783203, 19.85512924194336, 20.868640899658203, 0.08000000566244125, 0.01600000075995922, 1.040000081062317, 0.0, 0.0, 0.0, 0.0, 0.0, 1.613351215155648E9, 2021-02-14 20:06:55.155
93.0, 21.504425048828125, 28.623323440551758, 24.406587600708008, 29.07398223876953, 0.08000000566244125, 0.01600000075995922, 1.040000081062317, 0.0, 0.0, 0.0, 0.0, 0.0, 1.613351215155648E9, 2021-02-14 20:06:55.155
94.0, 12.083617210388184, 9.34414005279541, 4.876829624176025, 9.050558090209961, 0.08000000566244125, 0.01600000075995922, 1.040000081062317, 0.0, 0.0, 0.0, 0.0, 0.0, 1.613351215169322E9, 2021-02-14 20:06:55.169
94.0, 17.622407913208008, 26.58133888244629, 14.058283805847168, 20.3001766204834, 0.08000000566244125, 0.01600000075995922, 1.040000081062317, 0.0, 0.0, 0.0, 0.0, 0.0, 1.613351215169322E9, 2021-02-14 20:06:55.169
95.0, 19.46617889404297, 30.12676429748535, 33.40104675292969, 29.85936164855957, 0.08000000566244125, 0.01600000075995922, 1.040000081062317, 0.0, 0.0, 0.0, 0.0, 0.0, 1.6133512151849E9, 2021-02-14 20:06:55.184
95.0, 8.691527366638184, 9.635851860046387, 8.99445915222168, 9.809757232666016, 0.08000000566244125, 0.01600000075995922, 1.040000081062317, 0.0, 0.0, 0.0, 0.0, 0.0, 1.6133512151849E9, 2021-02-14 20:06:55.184
96.0, 15.531804084777832, 22.785341262817383, 13.366402626037598, 16.68743324279785, 0.08000000566244125, 0.01600000075995922, 1.040000081062317, 0.0, 0.0, 0.0, 0.0, 0.0, 1.613351215185608E9, 2021-02-14 20:06:55.185
96.0, 19.06226921081543, 30.09310531616211, 29.055282592773438, 32.5296516418457, 0.08000000566244125, 0.01600000075995922, 1.040000081062317, 0.0, 0.0, 0.0, 0.0, 0.0, 1.613351215185608E9, 2021-02-14 20:06:55.185
97.0, 15.875875473022461, 12.91574478149414, 11.27953815460205, 8.54941177368164, 0.08000000566244125, 0.01600000075995922, 1.040000081062317, 0.0, 0.0, 0.0, 0.0, 0.0, 1.613351215199275E9, 2021-02-14 20:06:55.199
97.0, 11.567510604858398, 14.265848159790039, 8.785024642944336, 8.16046142578125, 0.08000000566244125, 0.01600000075995922, 1.040000081062317, 0.0, 0.0, 0.0, 0.0, 0.0, 1.613351215199275E9, 2021-02-14 20:06:55.199
98.0, 16.20124626159668, 24.232681274414062, 20.16554069519043, 21.725078582763672, 0.08000000566244125, 0.01600000075995922, 1.040000081062317, 0.0, 0.0, 0.0, 0.0, 0.0, 1.613351215214948E9, 2021-02-14 20:06:55.214
98.0, 17.46533203125, 26.140029907226562, 27.05443572998047, 28.894466400146484, 0.08000000566244125, 0.01600000075995922, 1.040000081062317, 0.0, 0.0, 0.0, 0.0, 0.0, 1.613351215214948E9, 2021-02-14 20:06:55.214
99.0, 14.637968063354492, 13.375752449035645, 8.283878326416016, 10.78213119506836, 0.08000000566244125, 0.01600000075995922, 1.040000081062317, 0.0, 0.0, 0.0, 0.0, 0.0, 1.613351215215639E9, 2021-02-14 20:06:55.215
99.0, 19.64943504333496, 22.276714324951172, 16.216205596923828, 19.017391204833984, 0.08000000566244125, 0.01600000075995922, 1.040000081062317, 0.0, 0.0, 0.0, 0.0, 0.0, 1.613351215215639E9, 2021-02-14 20:06:55.215
100.0, 18.071197509765625, 31.697521209716797, 29.242277145385742, 34.60529327392578, 0.08000000566244125, 0.01600000075995922, 1.040000081062317, 0.0, 0.0, 0.0, 0.0, 0.0, 1.613351215229911E9, 2021-02-14 20:06:55.229
100.0, 9.510565757751465, 16.06100082397461, 6.997352600097656, 4.671134948730469, 0.08000000566244125, 0.01600000075995922, 1.040000081062317, 0.0, 0.0, 0.0, 0.0, 0.0, 1.613351215229911E9, 2021-02-14 20:06:55.229
0.0, 14.845532417297363, 22.91249656677246, 18.54055404663086, 18.45453643798828, 0.08000000566244125, 0.01600000075995922, 1.040000081062317, 0.0, 0.0, 0.0, 0.0, 0.0, 1.613351215230705E9, 2021-02-14 20:06:55.230
1.0, 16.580846786499023, 31.372150421142578, 28.324132919311523, 31.888256072998047, 0.08000000566244125, 0.01600000075995922, 1.040000081062317, 0.0, 0.0, 0.0, 0.0, 0.0, 1.613351215260649E9, 2021-02-14 20:06:55.260
1.0, 13.218676567077637, 17.545740127563477, 10.780261993408203, 10.36887264251709, 0.08000000566244125, 0.01600000075995922, 1.040000081062317, 0.0, 0.0, 0.0, 0.0, 0.0, 1.613351215260649E9, 2021-02-14 20:06:55.260
2.0, 10.683024406433105, 14.00405502319336, 6.752389430999756, 6.827187538146973, 0.08000000566244125, 0.01600000075995922, 1.040000081062317, 0.0, 0.0, 0.0, 0.0, 0.0, 1.613351215261383E9, 2021-02-14 20:06:55.261
2.0, 11.030835151672363, 20.14497184753418, 21.311819076538086, 22.7292423248291, 0.08000000566244125, 0.01600000075995922, 1.040000081062317, 0.0, 0.0, 0.0, 0.0, 0.0, 1.613351215261383E9, 2021-02-14 20:06:55.261
3.0, 19.969196319580078, 23.679176330566406, 23.357545852661133, 26.641178131103516, 0.08000000566244125, 0.01600000075995922, 1.040000081062317, 0.0, 0.0, 0.0, 0.0, 0.0, 1.613351215262167E9, 2021-02-14 20:06:55.262
3.0, 13.024201393127441, 14.845532417297363, 4.665524959564209, 7.6948442459106445, 0.08000000566244125, 0.01600000075995922, 1.040000081062317, 0.0, 0.0, 0.0, 0.0, 0.0, 1.613351215262167E9, 2021-02-14 20:06:55.262
4.0, 13.042901039123535, 20.485301971435547, 15.350419044494629, 11.389864921569824, 0.08000000566244125, 0.01600000075995922, 1.040000081062317, 0.0, 0.0, 0.0, 0.0, 0.0, 1.61335121527436E9, 2021-02-14 20:06:55.274
4.0, 22.69558334350586, 26.454181671142578, 27.572412490844727, 30.77002716064453, 0.08000000566244125, 0.01600000075995922, 1.040000081062317, 0.0, 0.0, 0.0, 0.0, 0.0, 1.61335121527436E9, 2021-02-14 20:06:55.274
5.0, 11.408564567565918, 8.558760643005371, 3.4537975788116455, 5.540661811828613, 0.08000000566244125, 0.01600000075995922, 1.040000081062317, 0.0, 0.0, 0.0, 0.0, 0.0, 1.613351215290016E9, 2021-02-14 20:06:55.290
5.0, 14.258368492126465, 21.45767593383789, 16.113359451293945, 14.153651237487793, 0.08000000566244125, 0.01600000075995922, 1.040000081062317, 0.0, 0.0, 0.0, 0.0, 0.0, 1.613351215290016E9, 2021-02-14 20:06:55.290
6.0, 15.84782600402832, 29.3787841796875, 29.027233123779297, 26.865571975708008, 0.08000000566244125, 0.01600000075995922, 1.040000081062317, 0.0, 0.0, 0.0, 0.0, 0.0, 1.613351215290686E9, 2021-02-14 20:06:55.290
6.0, 14.38178539276123, 18.252582550048828, 12.6090726852417, 16.84638023376465, 0.08000000566244125, 0.01600000075995922, 1.040000081062317, 0.0, 0.0, 0.0, 0.0, 0.0, 1.613351215290686E9, 2021-02-14 20:06:55.290
7.0, 13.510388374328613, 15.825387001037598, 13.49916934967041, 13.027941703796387, 0.08000000566244125, 0.01600000075995922, 1.040000081062317, 0.0, 0.0, 0.0, 0.0, 0.0, 1.613351215304331E9, 2021-02-14 20:06:55.304
7.0, 17.672897338867188, 24.860984802246094, 20.13749122619629, 27.086225509643555, 0.08000000566244125, 0.01600000075995922, 1.040000081062317, 0.0, 0.0, 0.0, 0.0, 0.0, 1.613351215304331E9, 2021-02-14 20:06:55.304
8.0, 21.57735252380371, 27.490135192871094, 21.057506561279297, 26.932889938354492, 0.08000000566244125, 0.01600000075995922, 1.040000081062317, 0.0, 0.0, 0.0, 0.0, 0.0, 1.61335121533633E9, 2021-02-14 20:06:55.336
8.0, 6.269942283630371, 12.055567741394043, 5.394805908203125, 6.2026238441467285, 0.08000000566244125, 0.01600000075995922, 1.040000081062317, 0.0, 0.0, 0.0, 0.0, 0.0, 1.61335121533633E9, 2021-02-14 20:06:55.336
9.0, 13.1663179397583, 15.71692943572998, 11.39360523223877, 13.959177017211914, 0.08000000566244125, 0.01600000075995922, 1.040000081062317, 0.0, 0.0, 0.0, 0.0, 0.0, 1.613351215337097E9, 2021-02-14 20:06:55.337
9.0, 21.566133499145508, 33.00648880004883, 30.3174991607666, 33.51885223388672, 0.08000000566244125, 0.01600000075995922, 1.040000081062317, 0.0, 0.0, 0.0, 0.0, 0.0, 1.613351215337097E9, 2021-02-14 20:06:55.337
10.0, 6.292381763458252, 10.791481018066406, 2.679638385772705, 6.898245334625244, 0.08000000566244125, 0.01600000075995922, 1.040000081062317, 0.0, 0.0, 0.0, 0.0, 0.0, 1.613351215337806E9, 2021-02-14 20:06:55.337
10.0, 15.731888771057129, 24.902124404907227, 19.3371524810791, 16.311573028564453, 0.08000000566244125, 0.01600000075995922, 1.040000081062317, 0.0, 0.0, 0.0, 0.0, 0.0, 1.613351215337806E9, 2021-02-14 20:06:55.337
11.0, 24.887165069580078, 28.907556533813477, 30.706449508666992, 32.24354934692383, 0.08000000566244125, 0.01600000075995922, 1.040000081062317, 0.0, 0.0, 0.0, 0.0, 0.0, 1.613351215338564E9, 2021-02-14 20:06:55.338
11.0, 13.962916374206543, 15.604732513427734, 9.822847366333008, 13.252335548400879, 0.08000000566244125, 0.01600000075995922, 1.040000081062317, 0.0, 0.0, 0.0, 0.0, 0.0, 1.613351215338564E9, 2021-02-14 20:06:55.338
12.0, 14.553820610046387, 16.04604148864746, 9.20202350616455, 14.235929489135742, 0.08000000566244125, 0.01600000075995922, 1.040000081062317, 0.0, 0.0, 0.0, 0.0, 0.0, 1.613351215349316E9, 2021-02-14 20:06:55.349
12.0, 18.966901779174805, 21.334259033203125, 18.338600158691406, 25.54912567138672, 0.08000000566244125, 0.01600000075995922, 1.040000081062317, 0.0, 0.0, 0.0, 0.0, 0.0, 1.613351215349316E9, 2021-02-14 20:06:55.349
13.0, 16.685564041137695, 27.101184844970703, 24.89838409423828, 23.787633895874023, 0.08000000566244125, 0.01600000075995922, 1.040000081062317, 0.0, 0.0, 0.0, 0.0, 0.0, 1.613351215364258E9, 2021-02-14 20:06:55.364
13.0, 6.097907066345215, 9.374059677124023, 5.477083683013916, 1.9391381740570068, 0.08000000566244125, 0.01600000075995922, 1.040000081062317, 0.0, 0.0, 0.0, 0.0, 0.0, 1.613351215364258E9, 2021-02-14 20:06:55.364
14.0, 18.099245071411133, 24.573013305664062, 17.46720314025879, 14.149911880493164, 0.08000000566244125, 0.01600000075995922, 1.040000081062317, 0.0, 0.0, 0.0, 0.0, 0.0, 1.613351215379949E9, 2021-02-14 20:06:55.379
14.0, 21.446456909179688, 28.7916202545166, 28.204456329345703, 28.133398056030273, 0.08000000566244125, 0.01600000075995922, 1.040000081062317, 0.0, 0.0, 0.0, 0.0, 0.0, 1.613351215379949E9, 2021-02-14 20:06:55.379
15.0, 7.414351463317871, 6.853366851806641, 0.6937514543533325, 6.030588626861572, 0.08000000566244125, 0.01600000075995922, 1.040000081062317, 0.0, 0.0, 0.0, 0.0, 0.0, 1.613351215380719E9, 2021-02-14 20:06:55.380
15.0, 10.735383033752441, 18.495676040649414, 18.66771125793457, 15.223262786865234, 0.08000000566244125, 0.01600000075995922, 1.040000081062317, 0.0, 0.0, 0.0, 0.0, 0.0, 1.613351215380719E9, 2021-02-14 20:06:55.380
16.0, 19.699922561645508, 30.489534378051758, 31.43572998046875, 30.47457504272461, 0.08000000566244125, 0.01600000075995922, 1.040000081062317, 0.0, 0.0, 0.0, 0.0, 0.0, 1.613351215394283E9, 2021-02-14 20:06:55.394
16.0, 11.32254695892334, 18.888364791870117, 11.180431365966797, 14.561300277709961, 0.08000000566244125, 0.01600000075995922, 1.040000081062317, 0.0, 0.0, 0.0, 0.0, 0.0, 1.613351215394283E9, 2021-02-14 20:06:55.394
17.0, 16.46491050720215, 14.931550979614258, 14.497722625732422, 13.966656684875488, 0.08000000566244125, 0.01600000075995922, 1.040000081062317, 0.0, 0.0, 0.0, 0.0, 0.0, 1.613351215409972E9, 2021-02-14 20:06:55.409
17.0, 18.880884170532227, 27.37793731689453, 23.596899032592773, 21.951343536376953, 0.08000000566244125, 0.01600000075995922, 1.040000081062317, 0.0, 0.0, 0.0, 0.0, 0.0, 1.613351215409972E9, 2021-02-14 20:06:55.409
18.0, 20.76579475402832, 25.242454528808594, 22.366472244262695, 23.922269821166992, 0.08000000566244125, 0.01600000075995922, 1.040000081062317, 0.0, 0.0, 0.0, 0.0, 0.0, 1.61335121541071E9, 2021-02-14 20:06:55.410
18.0, 16.797760009765625, 9.516175270080566, 2.8404541015625, 5.8735127449035645, 0.08000000566244125, 0.01600000075995922, 1.040000081062317, 0.0, 0.0, 0.0, 0.0, 0.0, 1.61335121541071E9, 2021-02-14 20:06:55.410
19.0, 14.26210880279541, 19.314712524414062, 13.959177017211914, 20.010334014892578, 0.08000000566244125, 0.01600000075995922, 1.040000081062317, 0.0, 0.0, 0.0, 0.0, 0.0, 1.613351215424279E9, 2021-02-14 20:06:55.424
19.0, 16.973535537719727, 27.905263900756836, 30.84108543395996, 31.54792594909668, 0.08000000566244125, 0.01600000075995922, 1.040000081062317, 0.0, 0.0, 0.0, 0.0, 0.0, 1.613351215424279E9, 2021-02-14 20:06:55.424
20.0, 7.818260669708252, 8.528841972351074, 3.061108112335205, 2.9115121364593506, 0.08000000566244125, 0.01600000075995922, 1.040000081062317, 0.0, 0.0, 0.0, 0.0, 0.0, 1.61335121543995E9, 2021-02-14 20:06:55.439
20.0, 13.671204566955566, 20.14497184753418, 12.15654468536377, 18.061847686767578, 0.08000000566244125, 0.01600000075995922, 1.040000081062317, 0.0, 0.0, 0.0, 0.0, 0.0, 1.61335121543995E9, 2021-02-14 20:06:55.439
21.0, 18.813566207885742, 31.211334228515625, 26.51776123046875, 33.702110290527344, 0.08000000566244125, 0.01600000075995922, 1.040000081062317, 0.0, 0.0, 0.0, 0.0, 0.0, 1.613351215440668E9, 2021-02-14 20:06:55.440
21.0, 11.371166229248047, 16.62572479248047, 10.12951946258545, 22.47492790222168, 0.08000000566244125, 0.01600000075995922, 1.040000081062317, 0.0, 0.0, 0.0, 0.0, 0.0, 1.613351215440668E9, 2021-02-14 20:06:55.440
22.0, 14.179830551147461, 18.174043655395508, 12.754928588867188, 9.729350090026855, 0.08000000566244125, 0.01600000075995922, 1.040000081062317, 0.0, 0.0, 0.0, 0.0, 0.0, 1.613351215470378E9, 2021-02-14 20:06:55.470
22.0, 19.7074031829834, 21.151004791259766, 22.201915740966797, 22.231834411621094, 0.08000000566244125, 0.01600000075995922, 1.040000081062317, 0.0, 0.0, 0.0, 0.0, 0.0, 1.613351215470378E9, 2021-02-14 20:06:55.470
23.0, 19.752281188964844, 26.278406143188477, 24.071866989135742, 27.621030807495117, 0.08000000566244125, 0.01600000075995922, 1.040000081062317, 0.0, 0.0, 0.0, 0.0, 0.0, 1.613351215471446E9, 2021-02-14 20:06:55.471
23.0, 11.51328182220459, 14.542600631713867, 3.8390073776245117, 4.3999924659729, 0.08000000566244125, 0.01600000075995922, 1.040000081062317, 0.0, 0.0, 0.0, 0.0, 0.0, 1.613351215471446E9, 2021-02-14 20:06:55.471
24.0, 14.19478988647461, 26.23352813720703, 20.40676498413086, 21.188404083251953, 0.08000000566244125, 0.01600000075995922, 1.040000081062317, 0.0, 0.0, 0.0, 0.0, 0.0, 1.613351215484963E9, 2021-02-14 20:06:55.484
24.0, 22.478668212890625, 30.025787353515625, 29.573259353637695, 30.201562881469727, 0.08000000566244125, 0.01600000075995922, 1.040000081062317, 0.0, 0.0, 0.0, 0.0, 0.0, 1.613351215484963E9, 2021-02-14 20:06:55.484
25.0, 12.59785270690918, 11.124332427978516, 1.168718695640564, 8.244609832763672, 0.08000000566244125, 0.01600000075995922, 1.040000081062317, 0.0, 0.0, 0.0, 0.0, 0.0, 1.61335121548564E9, 2021-02-14 20:06:55.485
25.0, 17.081993103027344, 20.728395462036133, 14.935290336608887, 17.45224380493164, 0.08000000566244125, 0.01600000075995922, 1.040000081062317, 0.0, 0.0, 0.0, 0.0, 0.0, 1.61335121548564E9, 2021-02-14 20:06:55.485
26.0, 17.998268127441406, 27.621030807495117, 27.33679962158203, 28.80657958984375, 0.08000000566244125, 0.01600000075995922, 1.040000081062317, 0.0, 0.0, 0.0, 0.0, 0.0, 1.613351215499934E9, 2021-02-14 20:06:55.499
26.0, 8.4540433883667, 14.206009864807129, 10.009841918945312, 13.1663179397583, 0.08000000566244125, 0.01600000075995922, 1.040000081062317, 0.0, 0.0, 0.0, 0.0, 0.0, 1.613351215499934E9, 2021-02-14 20:06:55.499
27.0, 13.540307998657227, 19.73358154296875, 13.315914154052734, 14.957730293273926, 0.08000000566244125, 0.01600000075995922, 1.040000081062317, 0.0, 0.0, 0.0, 0.0, 0.0, 1.613351215500668E9, 2021-02-14 20:06:55.500
27.0, 23.06209373474121, 28.47372817993164, 23.095752716064453, 28.589664459228516, 0.08000000566244125, 0.01600000075995922, 1.040000081062317, 0.0, 0.0, 0.0, 0.0, 0.0, 1.613351215500668E9, 2021-02-14 20:06:55.500
28.0, 17.527040481567383, 27.026386260986328, 20.93408966064453, 18.727548599243164, 0.08000000566244125, 0.01600000075995922, 1.040000081062317, 0.0, 0.0, 0.0, 0.0, 0.0, 1.61335121553063E9, 2021-02-14 20:06:55.530
28.0, 11.861092567443848, 11.662878036499023, 6.527995586395264, 5.963270664215088, 0.08000000566244125, 0.01600000075995922, 1.040000081062317, 0.0, 0.0, 0.0, 0.0, 0.0, 1.61335121553063E9, 2021-02-14 20:06:55.530
29.0, 10.623186111450195, 22.134597778320312, 16.39385223388672, 23.350065231323242, 0.08000000566244125, 0.01600000075995922, 1.040000081062317, 0.0, 0.0, 0.0, 0.0, 0.0, 1.613351215531348E9, 2021-02-14 20:06:55.531
29.0, 21.087425231933594, 28.55974578857422, 27.998760223388672, 31.585325241088867, 0.08000000566244125, 0.01600000075995922, 1.040000081062317, 0.0, 0.0, 0.0, 0.0, 0.0, 1.613351215531348E9, 2021-02-14 20:06:55.531
30.0, 11.33376693725586, 9.691950798034668, 4.673005104064941, 1.8045017719268799, 0.08000000566244125, 0.01600000075995922, 1.040000081062317, 0.0, 0.0, 0.0, 0.0, 0.0, 1.613351215532077E9, 2021-02-14 20:06:55.532
30.0, 16.30783462524414, 19.999114990234375, 20.24220848083496, 13.203717231750488, 0.08000000566244125, 0.01600000075995922, 1.040000081062317, 0.0, 0.0, 0.0, 0.0, 0.0, 1.613351215532077E9, 2021-02-14 20:06:55.532
31.0, 19.842039108276367, 30.444656372070312, 27.18720245361328, 31.207595825195312, 0.08000000566244125, 0.01600000075995922, 1.040000081062317, 0.0, 0.0, 0.0, 0.0, 0.0, 1.613351215544295E9, 2021-02-14 20:06:55.544
31.0, 11.947110176086426, 13.607625961303711, 4.49722957611084, 12.560454368591309, 0.08000000566244125, 0.01600000075995922, 1.040000081062317, 0.0, 0.0, 0.0, 0.0, 0.0, 1.613351215544295E9, 2021-02-14 20:06:55.544
32.0, 8.424124717712402, 18.843486785888672, 11.483363151550293, 12.852166175842285, 0.08000000566244125, 0.01600000075995922, 1.040000081062317, 0.0, 0.0, 0.0, 0.0, 0.0, 1.613351215559926E9, 2021-02-14 20:06:55.559
32.0, 19.187557220458984, 21.13978385925293, 23.60437774658203, 23.129411697387695, 0.08000000566244125, 0.01600000075995922, 1.040000081062317, 0.0, 0.0, 0.0, 0.0, 0.0, 1.613351215559926E9, 2021-02-14 20:06:55.559
33.0, 19.744802474975586, 23.989587783813477, 24.973182678222656, 24.543092727661133, 0.08000000566244125, 0.01600000075995922, 1.040000081062317, 0.0, 0.0, 0.0, 0.0, 0.0, 1.61335121556063E9, 2021-02-14 20:06:55.560
33.0, 9.145925521850586, 10.582046508789062, 3.4537975788116455, 5.626679420471191, 0.08000000566244125, 0.01600000075995922, 1.040000081062317, 0.0, 0.0, 0.0, 0.0, 0.0, 1.61335121556063E9, 2021-02-14 20:06:55.560
34.0, 16.378890991210938, 20.533920288085938, 17.785093307495117, 18.97812271118164, 0.08000000566244125, 0.01600000075995922, 1.040000081062317, 0.0, 0.0, 0.0, 0.0, 0.0, 1.613351215574296E9, 2021-02-14 20:06:55.574
34.0, 23.1406307220459, 29.9659481048584, 32.92047119140625, 36.43597412109375, 0.08000000566244125, 0.01600000075995922, 1.040000081062317, 0.0, 0.0, 0.0, 0.0, 0.0, 1.613351215574296E9, 2021-02-14 20:06:55.574
35.0, 7.7247633934021, 12.549234390258789, 3.5024163722991943, 6.311081409454346, 0.08000000566244125, 0.01600000075995922, 1.040000081062317, 0.0, 0.0, 0.0, 0.0, 0.0, 1.613351215589915E9, 2021-02-14 20:06:55.589
35.0, 15.14472484588623, 22.718021392822266, 14.886672019958496, 14.022754669189453, 0.08000000566244125, 0.01600000075995922, 1.040000081062317, 0.0, 0.0, 0.0, 0.0, 0.0, 1.613351215589915E9, 2021-02-14 20:06:55.589
36.0, 17.77013397216797, 30.50823402404785, 21.27442169189453, 23.709095001220703, 0.08000000566244125, 0.01600000075995922, 1.040000081062317, 0.0, 0.0, 0.0, 0.0, 0.0, 1.613351215590759E9, 2021-02-14 20:06:55.590
36.0, 9.942523956298828, 10.372612953186035, 13.835760116577148, 7.904278755187988, 0.08000000566244125, 0.01600000075995922, 1.040000081062317, 0.0, 0.0, 0.0, 0.0, 0.0, 1.613351215590759E9, 2021-02-14 20:06:55.590
37.0, 13.484209060668945, 14.546340942382812, 12.941924095153809, 11.689057350158691, 0.08000000566244125, 0.01600000075995922, 1.040000081062317, 0.0, 0.0, 0.0, 0.0, 0.0, 1.613351215604279E9, 2021-02-14 20:06:55.604
37.0, 17.50834083557129, 24.89838409423828, 22.676883697509766, 24.90586280822754, 0.08000000566244125, 0.01600000075995922, 1.040000081062317, 0.0, 0.0, 0.0, 0.0, 0.0, 1.613351215604279E9, 2021-02-14 20:06:55.604
38.0, 19.01926040649414, 26.3681640625, 24.303739547729492, 25.586524963378906, 0.08000000566244125, 0.01600000075995922, 1.040000081062317, 0.0, 0.0, 0.0, 0.0, 0.0, 1.613351215619936E9, 2021-02-14 20:06:55.619
38.0, 10.55960750579834, 9.340399742126465, 5.5481414794921875, 5.35366678237915, 0.08000000566244125, 0.01600000075995922, 1.040000081062317, 0.0, 0.0, 0.0, 0.0, 0.0, 1.613351215619936E9, 2021-02-14 20:06:55.619
39.0, 12.825986862182617, 19.456829071044922, 15.941323280334473, 16.408811569213867, 0.08000000566244125, 0.01600000075995922, 1.040000081062317, 0.0, 0.0, 0.0, 0.0, 0.0, 1.613351215620676E9, 2021-02-14 20:06:55.620
39.0, 20.152450561523438, 27.32931900024414, 30.91214370727539, 30.61669158935547, 0.08000000566244125, 0.01600000075995922, 1.040000081062317, 0.0, 0.0, 0.0, 0.0, 0.0, 1.613351215620676E9, 2021-02-14 20:06:55.620
40.0, 6.845886707305908, 12.2276029586792, 0.8022085428237915, 10.413751602172852, 0.08000000566244125, 0.01600000075995922, 1.040000081062317, 0.0, 0.0, 0.0, 0.0, 0.0, 1.613351215634276E9, 2021-02-14 20:06:55.634
40.0, 19.957975387573242, 21.730688095092773, 11.748895645141602, 17.44476318359375, 0.08000000566244125, 0.01600000075995922, 1.040000081062317, 0.0, 0.0, 0.0, 0.0, 0.0, 1.613351215634276E9, 2021-02-14 20:06:55.634
41.0, 20.44790267944336, 32.56892013549805, 27.445255279541016, 29.326425552368164, 0.08000000566244125, 0.01600000075995922, 1.040000081062317, 0.0, 0.0, 0.0, 0.0, 0.0, 1.613351215666332E9, 2021-02-14 20:06:55.666
41.0, 9.878945350646973, 13.727302551269531, 6.662631988525391, 7.3395538330078125, 0.08000000566244125, 0.01600000075995922, 1.040000081062317, 0.0, 0.0, 0.0, 0.0, 0.0, 1.613351215666332E9, 2021-02-14 20:06:55.666
42.0, 11.849872589111328, 18.0169677734375, 14.740816116333008, 16.35645294189453, 0.08000000566244125, 0.01600000075995922, 1.040000081062317, 0.0, 0.0, 0.0, 0.0, 0.0, 1.61335121566706E9, 2021-02-14 20:06:55.667
42.0, 14.987648963928223, 24.29252052307129, 21.158483505249023, 23.462263107299805, 0.08000000566244125, 0.01600000075995922, 1.040000081062317, 0.0, 0.0, 0.0, 0.0, 0.0, 1.61335121566706E9, 2021-02-14 20:06:55.667
43.0, 19.262353897094727, 27.998760223388672, 22.7591609954834, 22.358991622924805, 0.08000000566244125, 0.01600000075995922, 1.040000081062317, 0.0, 0.0, 0.0, 0.0, 0.0, 1.613351215667797E9, 2021-02-14 20:06:55.667
43.0, 9.688210487365723, 11.707756996154785, 5.136752605438232, 9.086087226867676, 0.08000000566244125, 0.01600000075995922, 1.040000081062317, 0.0, 0.0, 0.0, 0.0, 0.0, 1.613351215667797E9, 2021-02-14 20:06:55.667
44.0, 12.751189231872559, 19.071619033813477, 16.99223518371582, 19.93927574157715, 0.08000000566244125, 0.01600000075995922, 1.040000081062317, 0.0, 0.0, 0.0, 0.0, 0.0, 1.613351215668563E9, 2021-02-14 20:06:55.668
44.0, 22.905017852783203, 30.897184371948242, 28.675682067871094, 28.073558807373047, 0.08000000566244125, 0.01600000075995922, 1.040000081062317, 0.0, 0.0, 0.0, 0.0, 0.0, 1.613351215668563E9, 2021-02-14 20:06:55.668
45.0, 11.595560073852539, 7.189957618713379, 6.535475254058838, 3.8539669513702393, 0.08000000566244125, 0.01600000075995922, 1.040000081062317, 0.0, 0.0, 0.0, 0.0, 0.0, 1.61335121567931E9, 2021-02-14 20:06:55.679
45.0, 17.792573928833008, 19.37455177307129, 17.616798400878906, 13.439330101013184, 0.08000000566244125, 0.01600000075995922, 1.040000081062317, 0.0, 0.0, 0.0, 0.0, 0.0, 1.61335121567931E9, 2021-02-14 20:06:55.679
46.0, 20.466602325439453, 26.58881950378418, 24.53935432434082, 31.4619083404541, 0.08000000566244125, 0.01600000075995922, 1.040000081062317, 0.0, 0.0, 0.0, 0.0, 0.0, 1.613351215694254E9, 2021-02-14 20:06:55.694
46.0, 13.054121017456055, 16.835159301757812, 5.5444016456604, 9.160884857177734, 0.08000000566244125, 0.01600000075995922, 1.040000081062317, 0.0, 0.0, 0.0, 0.0, 0.0, 1.613351215694254E9, 2021-02-14 20:06:55.694
47.0, 10.832620620727539, 15.253182411193848, 16.04604148864746, 13.42811107635498, 0.08000000566244125, 0.01600000075995922, 1.040000081062317, 0.0, 0.0, 0.0, 0.0, 0.0, 1.613351215709927E9, 2021-02-14 20:06:55.709
47.0, 18.503154754638672, 23.623077392578125, 20.477821350097656, 25.287334442138672, 0.08000000566244125, 0.01600000075995922, 1.040000081062317, 0.0, 0.0, 0.0, 0.0, 0.0, 1.613351215709927E9, 2021-02-14 20:06:55.709
48.0, 16.449949264526367, 24.73008918762207, 27.602331161499023, 26.760854721069336, 0.08000000566244125, 0.01600000075995922, 1.040000081062317, 0.0, 0.0, 0.0, 0.0, 0.0, 1.613351215710664E9, 2021-02-14 20:06:55.710
48.0, 10.974736213684082, 14.613658905029297, 4.792681694030762, 4.777722358703613, 0.08000000566244125, 0.01600000075995922, 1.040000081062317, 0.0, 0.0, 0.0, 0.0, 0.0, 1.613351215710664E9, 2021-02-14 20:06:55.710
49.0, 17.093212127685547, 21.199623107910156, 18.73876953125, 20.541400909423828, 0.08000000566244125, 0.01600000075995922, 1.040000081062317, 0.0, 0.0, 0.0, 0.0, 0.0, 1.613351215724459E9, 2021-02-14 20:06:55.724
49.0, 18.21518325805664, 34.25187301635742, 29.76773452758789, 26.76459312438965, 0.08000000566244125, 0.01600000075995922, 1.040000081062317, 0.0, 0.0, 0.0, 0.0, 0.0, 1.613351215724459E9, 2021-02-14 20:06:55.724
50.0, 11.689057350158691, 14.161130905151367, 4.190557956695557, 9.609672546386719, 0.08000000566244125, 0.01600000075995922, 1.040000081062317, 0.0, 0.0, 0.0, 0.0, 0.0, 1.613351215739986E9, 2021-02-14 20:06:55.739
50.0, 16.88751792907715, 21.84662628173828, 16.827680587768555, 25.706201553344727, 0.08000000566244125, 0.01600000075995922, 1.040000081062317, 0.0, 0.0, 0.0, 0.0, 0.0, 1.613351215739986E9, 2021-02-14 20:06:55.739
51.0, 19.640085220336914, 26.633697509765625, 30.511974334716797, 31.92939567565918, 0.08000000566244125, 0.01600000075995922, 1.040000081062317, 0.0, 0.0, 0.0, 0.0, 0.0, 1.613351215740679E9, 2021-02-14 20:06:55.740
51.0, 13.727302551269531, 15.092366218566895, 13.413150787353516, 15.855305671691895, 0.08000000566244125, 0.01600000075995922, 1.040000081062317, 0.0, 0.0, 0.0, 0.0, 0.0, 1.613351215740679E9, 2021-02-14 20:06:55.740
52.0, 12.706310272216797, 14.303247451782227, 12.388418197631836, 15.578553199768066, 0.08000000566244125, 0.01600000075995922, 1.040000081062317, 0.0, 0.0, 0.0, 0.0, 0.0, 1.613351215754282E9, 2021-02-14 20:06:55.754
52.0, 13.256075859069824, 23.275266647338867, 24.071866989135742, 28.952436447143555, 0.08000000566244125, 0.01600000075995922, 1.040000081062317, 0.0, 0.0, 0.0, 0.0, 0.0, 1.613351215754282E9, 2021-02-14 20:06:55.754
53.0, 16.176937103271484, 24.408456802368164, 19.793420791625977, 22.12337875366211, 0.08000000566244125, 0.01600000075995922, 1.040000081062317, 0.0, 0.0, 0.0, 0.0, 0.0, 1.613351215769951E9, 2021-02-14 20:06:55.769
53.0, 14.83431339263916, 13.521608352661133, 6.610273361206055, 5.495782852172852, 0.08000000566244125, 0.01600000075995922, 1.040000081062317, 0.0, 0.0, 0.0, 0.0, 0.0, 1.613351215769951E9, 2021-02-14 20:06:55.769
54.0, 14.449103355407715, 26.308326721191406, 18.577953338623047, 18.06558609008789, 0.08000000566244125, 0.01600000075995922, 1.040000081062317, 0.0, 0.0, 0.0, 0.0, 0.0, 1.6133512157707E9, 2021-02-14 20:06:55.770
54.0, 20.055213928222656, 27.538753509521484, 28.241853713989258, 28.597145080566406, 0.08000000566244125, 0.01600000075995922, 1.040000081062317, 0.0, 0.0, 0.0, 0.0, 0.0, 1.6133512157707E9, 2021-02-14 20:06:55.770
55.0, 7.964117050170898, 9.190804481506348, 1.0527818202972412, 0.19260485470294952, 0.08000000566244125, 0.01600000075995922, 1.040000081062317, 0.0, 0.0, 0.0, 0.0, 0.0, 1.613351215784235E9, 2021-02-14 20:06:55.784
55.0, 13.192497253417969, 19.864479064941406, 16.386371612548828, 19.045440673828125, 0.08000000566244125, 0.01600000075995922, 1.040000081062317, 0.0, 0.0, 0.0, 0.0, 0.0, 1.613351215784235E9, 2021-02-14 20:06:55.784
56.0, 17.265247344970703, 32.01167297363281, 26.132551193237305, 28.97487449645996, 0.08000000566244125, 0.01600000075995922, 1.040000081062317, 0.0, 0.0, 0.0, 0.0, 0.0, 1.613351215799963E9, 2021-02-14 20:06:55.799
56.0, 13.443070411682129, 8.887872695922852, 10.61944580078125, 14.314467430114746, 0.08000000566244125, 0.01600000075995922, 1.040000081062317, 0.0, 0.0, 0.0, 0.0, 0.0, 1.613351215799963E9, 2021-02-14 20:06:55.799
57.0, 11.662878036499023, 17.179229736328125, 10.582046508789062, 11.621739387512207, 0.08000000566244125, 0.01600000075995922, 1.040000081062317, 0.0, 0.0, 0.0, 0.0, 0.0, 1.613351215800694E9, 2021-02-14 20:06:55.800
57.0, 19.161376953125, 22.635744094848633, 23.62681770324707, 21.71946907043457, 0.08000000566244125, 0.01600000075995922, 1.040000081062317, 0.0, 0.0, 0.0, 0.0, 0.0, 1.613351215800694E9, 2021-02-14 20:06:55.800
58.0, 16.63320541381836, 26.476621627807617, 22.34029197692871, 26.19986915588379, 0.08000000566244125, 0.01600000075995922, 1.040000081062317, 0.0, 0.0, 0.0, 0.0, 0.0, 1.613351215814316E9, 2021-02-14 20:06:55.814
58.0, 11.580599784851074, 13.652504920959473, 6.853366851806641, 4.519669055938721, 0.08000000566244125, 0.01600000075995922, 1.040000081062317, 0.0, 0.0, 0.0, 0.0, 0.0, 1.613351215814316E9, 2021-02-14 20:06:55.814
59.0, 21.539953231811523, 20.21603012084961, 16.80150032043457, 14.939030647277832, 0.08000000566244125, 0.01600000075995922, 1.040000081062317, 0.0, 0.0, 0.0, 0.0, 0.0, 1.613351215829971E9, 2021-02-14 20:06:55.829
59.0, 19.86073875427246, 30.055706024169922, 26.379384994506836, 25.23871421813965, 0.08000000566244125, 0.01600000075995922, 1.040000081062317, 0.0, 0.0, 0.0, 0.0, 0.0, 1.613351215829971E9, 2021-02-14 20:06:55.829
60.0, 8.341846466064453, 11.96207046508789, 4.433651447296143, 4.833820819854736, 0.08000000566244125, 0.01600000075995922, 1.040000081062317, 0.0, 0.0, 0.0, 0.0, 0.0, 1.613351215830656E9, 2021-02-14 20:06:55.830
60.0, 16.274173736572266, 19.079099655151367, 16.939876556396484, 20.40676498413086, 0.08000000566244125, 0.01600000075995922, 1.040000081062317, 0.0, 0.0, 0.0, 0.0, 0.0, 1.613351215830656E9, 2021-02-14 20:06:55.830
61.0, 20.0589542388916, 31.42076873779297, 26.48784065246582, 31.009380340576172, 0.08000000566244125, 0.01600000075995922, 1.040000081062317, 0.0, 0.0, 0.0, 0.0, 0.0, 1.61335121584425E9, 2021-02-14 20:06:55.844
61.0, 11.341246604919434, 17.80379295349121, 6.916944980621338, 15.97872257232666, 0.08000000566244125, 0.01600000075995922, 1.040000081062317, 0.0, 0.0, 0.0, 0.0, 0.0, 1.61335121584425E9, 2021-02-14 20:06:55.844
62.0, 17.22784996032715, 17.702816009521484, 14.093812942504883, 13.525348663330078, 0.08000000566244125, 0.01600000075995922, 1.040000081062317, 0.0, 0.0, 0.0, 0.0, 0.0, 1.613351215859964E9, 2021-02-14 20:06:55.859
62.0, 19.004301071166992, 21.5848331451416, 20.492782592773438, 17.77013397216797, 0.08000000566244125, 0.01600000075995922, 1.040000081062317, 0.0, 0.0, 0.0, 0.0, 0.0, 1.613351215859964E9, 2021-02-14 20:06:55.859
63.0, 18.417137145996094, 23.207948684692383, 19.890657424926758, 19.602685928344727, 0.08000000566244125, 0.01600000075995922, 1.040000081062317, 0.0, 0.0, 0.0, 0.0, 0.0, 1.613351215860669E9, 2021-02-14 20:06:55.860
63.0, 8.764455795288086, 10.970996856689453, 1.8568602800369263, 9.168364524841309, 0.08000000566244125, 0.01600000075995922, 1.040000081062317, 0.0, 0.0, 0.0, 0.0, 0.0, 1.613351215860669E9, 2021-02-14 20:06:55.860
64.0, 17.186710357666016, 25.380830764770508, 20.27960777282715, 24.479515075683594, 0.08000000566244125, 0.01600000075995922, 1.040000081062317, 0.0, 0.0, 0.0, 0.0, 0.0, 1.613351215874285E9, 2021-02-14 20:06:55.874
64.0, 20.466602325439453, 32.65867614746094, 29.24414825439453, 29.487241744995117, 0.08000000566244125, 0.01600000075995922, 1.040000081062317, 0.0, 0.0, 0.0, 0.0, 0.0, 1.613351215874285E9, 2021-02-14 20:06:55.874
65.0, 10.8101806640625, 15.043747901916504, 3.461277484893799, 6.427018165588379, 0.08000000566244125, 0.01600000075995922, 1.040000081062317, 0.0, 0.0, 0.0, 0.0, 0.0, 1.613351215889957E9, 2021-02-14 20:06:55.889
65.0, 12.91574478149414, 19.89813804626465, 17.594358444213867, 18.27128028869629, 0.08000000566244125, 0.01600000075995922, 1.040000081062317, 0.0, 0.0, 0.0, 0.0, 0.0, 1.613351215889957E9, 2021-02-14 20:06:55.889
66.0, 21.487594604492188, 23.462263107299805, 27.426555633544922, 27.826725006103516, 0.08000000566244125, 0.01600000075995922, 1.040000081062317, 0.0, 0.0, 0.0, 0.0, 0.0, 1.613351215890694E9, 2021-02-14 20:06:55.890
66.0, 8.730796813964844, 15.997422218322754, 6.131566047668457, 9.878945350646973, 0.08000000566244125, 0.01600000075995922, 1.040000081062317, 0.0, 0.0, 0.0, 0.0, 0.0, 1.613351215890694E9, 2021-02-14 20:06:55.890
67.0, 12.59411334991455, 16.80898094177246, 15.649611473083496, 16.24425506591797, 0.08000000566244125, 0.01600000075995922, 1.040000081062317, 0.0, 0.0, 0.0, 0.0, 0.0, 1.613351215904274E9, 2021-02-14 20:06:55.904
67.0, 19.052919387817383, 23.918529510498047, 24.453336715698242, 28.720561981201172, 0.08000000566244125, 0.01600000075995922, 1.040000081062317, 0.0, 0.0, 0.0, 0.0, 0.0, 1.613351215904274E9, 2021-02-14 20:06:55.904
68.0, 19.206256866455078, 24.501955032348633, 23.55575942993164, 24.457075119018555, 0.08000000566244125, 0.01600000075995922, 1.040000081062317, 0.0, 0.0, 0.0, 0.0, 0.0, 1.613351215935585E9, 2021-02-14 20:06:55.935
68.0, 13.592666625976562, 11.771334648132324, 6.348480224609375, 4.4299116134643555, 0.08000000566244125, 0.01600000075995922, 1.040000081062317, 0.0, 0.0, 0.0, 0.0, 0.0, 1.613351215935585E9, 2021-02-14 20:06:55.935
69.0, 17.497121810913086, 25.403270721435547, 19.935537338256836, 20.021554946899414, 0.08000000566244125, 0.01600000075995922, 1.040000081062317, 0.0, 0.0, 0.0, 0.0, 0.0, 1.613351215936104E9, 2021-02-14 20:06:55.936
69.0, 22.964855194091797, 29.913589477539062, 31.52548599243164, 31.847118377685547, 0.08000000566244125, 0.01600000075995922, 1.040000081062317, 0.0, 0.0, 0.0, 0.0, 0.0, 1.613351215936104E9, 2021-02-14 20:06:55.936
70.0, 8.805594444274902, 9.119746208190918, 5.525701999664307, 3.1620852947235107, 0.08000000566244125, 0.01600000075995922, 1.040000081062317, 0.0, 0.0, 0.0, 0.0, 0.0, 1.613351215950669E9, 2021-02-14 20:06:55.950
70.0, 16.42751121520996, 20.799453735351562, 17.54199981689453, 19.81212043762207, 0.08000000566244125, 0.01600000075995922, 1.040000081062317, 0.0, 0.0, 0.0, 0.0, 0.0, 1.613351215950669E9, 2021-02-14 20:06:55.950
71.0, 17.145570755004883, 24.038206100463867, 21.2332820892334, 27.983800888061523, 0.08000000566244125, 0.01600000075995922, 1.040000081062317, 0.0, 0.0, 0.0, 0.0, 0.0, 1.613351215951362E9, 2021-02-14 20:06:55.951
71.0, 13.592666625976562, 19.21747589111328, 8.768195152282715, 12.717530250549316, 0.08000000566244125, 0.01600000075995922, 1.040000081062317, 0.0, 0.0, 0.0, 0.0, 0.0, 1.613351215951362E9, 2021-02-14 20:06:55.951
72.0, 15.79920768737793, 18.417137145996094, 15.298060417175293, 15.93010425567627, 0.08000000566244125, 0.01600000075995922, 1.040000081062317, 0.0, 0.0, 0.0, 0.0, 0.0, 1.613351215952129E9, 2021-02-14 20:06:55.952
72.0, 16.954835891723633, 22.493627548217773, 20.844331741333008, 26.054012298583984, 0.08000000566244125, 0.01600000075995922, 1.040000081062317, 0.0, 0.0, 0.0, 0.0, 0.0, 1.613351215952129E9, 2021-02-14 20:06:55.952
73.0, 18.102985382080078, 24.000808715820312, 21.16222381591797, 20.795713424682617, 0.08000000566244125, 0.01600000075995922, 1.040000081062317, 0.0, 0.0, 0.0, 0.0, 0.0, 1.613351215964303E9, 2021-02-14 20:06:55.964
73.0, 10.387572288513184, 9.321701049804688, 2.9713504314422607, 0.5815544724464417, 0.08000000566244125, 0.01600000075995922, 1.040000081062317, 0.0, 0.0, 0.0, 0.0, 0.0, 1.613351215964303E9, 2021-02-14 20:06:55.964
74.0, 10.372612953186035, 25.27985382080078, 20.44790267944336, 18.054367065429688, 0.08000000566244125, 0.01600000075995922, 1.040000081062317, 0.0, 0.0, 0.0, 0.0, 0.0, 1.613351215979894E9, 2021-02-14 20:06:55.979
74.0, 18.03940773010254, 31.27117347717285, 35.459861755371094, 29.083332061767578, 0.08000000566244125, 0.01600000075995922, 1.040000081062317, 0.0, 0.0, 0.0, 0.0, 0.0, 1.613351215979894E9, 2021-02-14 20:06:55.979
75.0, 6.456937313079834, 8.540061950683594, 7.668664932250977, 9.598453521728516, 0.08000000566244125, 0.01600000075995922, 1.040000081062317, 0.0, 0.0, 0.0, 0.0, 0.0, 1.613351215980705E9, 2021-02-14 20:06:55.980
75.0, 14.841793060302734, 21.0687255859375, 17.104433059692383, 15.451396942138672, 0.08000000566244125, 0.01600000075995922, 1.040000081062317, 0.0, 0.0, 0.0, 0.0, 0.0, 1.613351215980705E9, 2021-02-14 20:06:55.980
76.0, 18.925764083862305, 27.445255279541016, 27.695829391479492, 29.749034881591797, 0.08000000566244125, 0.01600000075995922, 1.040000081062317, 0.0, 0.0, 0.0, 0.0, 0.0, 1.613351215994287E9, 2021-02-14 20:06:55.994
76.0, 13.966656684875488, 13.259815216064453, 7.302154541015625, 11.535721778869629, 0.08000000566244125, 0.01600000075995922, 1.040000081062317, 0.0, 0.0, 0.0, 0.0, 0.0, 1.613351215994287E9, 2021-02-14 20:06:55.994
77.0, 11.685317039489746, 15.174644470214844, 9.336660385131836, 12.078006744384766, 0.08000000566244125, 0.01600000075995922, 1.040000081062317, 0.0, 0.0, 0.0, 0.0, 0.0, 1.613351216009958E9, 2021-02-14 20:06:56.009
77.0, 15.077406883239746, 32.224849700927734, 23.709095001220703, 20.74335479736328, 0.08000000566244125, 0.01600000075995922, 1.040000081062317, 0.0, 0.0, 0.0, 0.0, 0.0, 1.613351216009958E9, 2021-02-14 20:06:56.009
78.0, 17.18297004699707, 21.73442840576172, 19.856998443603516, 24.995620727539062, 0.08000000566244125, 0.01600000075995922, 1.040000081062317, 0.0, 0.0, 0.0, 0.0, 0.0, 1.613351216010677E9, 2021-02-14 20:06:56.010
78.0, 12.818507194519043, 15.081146240234375, 6.984262943267822, 9.478775978088379, 0.08000000566244125, 0.01600000075995922, 1.040000081062317, 0.0, 0.0, 0.0, 0.0, 0.0, 1.613351216010677E9, 2021-02-14 20:06:56.010
