%OpenBCI Raw EEG Data
%Number of channels = 4
%Sample Rate = 200 Hz
%Board = OpenBCI_GUI$BoardGanglionBLE
Sample Index, EXG Channel 0, EXG Channel 1, EXG Channel 2, EXG Channel 3, Accel Channel 0, Accel Channel 1, Accel Channel 2, Other, Other, Other, Other, Other, Timestamp, Timestamp (Formatted)
0.0, 12.221993446350098, 16.30783462524414, 12.38654899597168, 17.287687301635742, 0.0, 0.0, 0.0, 0.0, 0.0, 0.0, 0.0, 0.0, 1.613351197095586E9, 2021-02-14 20:06:37.095
1.0, 14.709026336669922, 24.73008918762207, 23.47161293029785, 23.787633895874023, 0.0, 0.01600000075995922, 0.0, 0.0, 0.0, 0.0, 0.0, 0.0, 1.613351197109491E9, 2021-02-14 20:06:37.109
1.0, 15.288710594177246, 19.595205307006836, 17.929080963134766, 20.855552673339844, 0.0, 0.01600000075995922, 0.0, 0.0, 0.0, 0.0, 0.0, 0.0, 1.613351197109491E9, 2021-02-14 20:06:37.109
2.0, 6.096036911010742, 5.832374095916748, -0.09723740071058273, 1.6923047304153442, 0.08000000566244125, 0.01600000075995922, 0.0, 0.0, 0.0, 0.0, 0.0, 0.0, 1.613351197126276E9, 2021-02-14 20:06:37.126
2.0, 14.439753532409668, 26.158729553222656, 17.936559677124023, 23.073312759399414, 0.08000000566244125, 0.01600000075995922, 0.0, 0.0, 0.0, 0.0, 0.0, 0.0, 1.613351197126276E9, 2021-02-14 20:06:37.126
3.0, 24.10739517211914, 28.597145080566406, 33.83487319946289, 33.48519515991211, 0.08000000566244125, 0.01600000075995922, 0.0, 0.0, 0.0, 0.0, 0.0, 0.0, 1.613351197126993E9, 2021-02-14 20:06:37.126
3.0, 8.261439323425293, 10.03602123260498, -1.2753058671951294, 3.5809543132781982, 0.08000000566244125, 0.01600000075995922, 0.0, 0.0, 0.0, 0.0, 0.0, 0.0, 1.613351197126993E9, 2021-02-14 20:06:37.126
4.0, 14.387394905090332, 24.99188232421875, 14.817483901977539, 18.70884895324707, 0.08000000566244125, 0.01600000075995922, 0.0, 0.0, 0.0, 0.0, 0.0, 0.0, 1.613351197139361E9, 2021-02-14 20:06:37.139
4.0, 29.545209884643555, 31.65264320373535, 29.799522399902344, 32.87559127807617, 0.08000000566244125, 0.01600000075995922, 0.0, 0.0, 0.0, 0.0, 0.0, 0.0, 1.613351197139361E9, 2021-02-14 20:06:37.139
5.0, 6.739299774169922, 12.018168449401855, 9.177714347839355, 8.427864074707031, 0.08000000566244125, 0.01600000075995922, 0.0, 0.0, 0.0, 0.0, 0.0, 0.0, 1.613351197154932E9, 2021-02-14 20:06:37.154
5.0, 12.480046272277832, 19.546586990356445, 13.377622604370117, 14.086333274841309, 0.08000000566244125, 0.01600000075995922, 0.0, 0.0, 0.0, 0.0, 0.0, 0.0, 1.613351197154932E9, 2021-02-14 20:06:37.154
6.0, 19.144548416137695, 28.60088539123535, 28.131526947021484, 25.80344009399414, 0.08000000566244125, 0.01600000075995922, 0.0, 0.0, 0.0, 0.0, 0.0, 0.0, 1.613351197155703E9, 2021-02-14 20:06:37.155
6.0, 17.962739944458008, 20.762054443359375, 24.65342140197754, 19.59894561767578, 0.08000000566244125, 0.01600000075995922, 0.0, 0.0, 0.0, 0.0, 0.0, 0.0, 1.613351197155703E9, 2021-02-14 20:06:37.155
7.0, 8.665348052978516, 10.342693328857422, 5.677168369293213, 8.267048835754395, 0.08000000566244125, 0.01600000075995922, 0.0, 0.0, 0.0, 0.0, 0.0, 0.0, 1.61335119716923E9, 2021-02-14 20:06:37.169
7.0, 20.161800384521484, 22.7703800201416, 20.711565017700195, 22.302892684936523, 0.08000000566244125, 0.01600000075995922, 0.0, 0.0, 0.0, 0.0, 0.0, 0.0, 1.61335119716923E9, 2021-02-14 20:06:37.169
8.0, 20.917261123657227, 32.52777862548828, 30.083755493164062, 30.171642303466797, 0.08000000566244125, 0.01600000075995922, 0.0, 0.0, 0.0, 0.0, 0.0, 0.0, 1.613351197184938E9, 2021-02-14 20:06:37.184
8.0, 8.968279838562012, 11.45344352722168, -0.26179298758506775, 4.736583232879639, 0.08000000566244125, 0.01600000075995922, 0.0, 0.0, 0.0, 0.0, 0.0, 0.0, 1.613351197184938E9, 2021-02-14 20:06:37.184
9.0, 14.892281532287598, 22.923717498779297, 14.731466293334961, 15.552373886108398, 0.08000000566244125, 0.01600000075995922, 0.0, 0.0, 0.0, 0.0, 0.0, 0.0, 1.613351197185646E9, 2021-02-14 20:06:37.185
9.0, 22.828350067138672, 32.61379623413086, 30.035137176513672, 32.56517791748047, 0.08000000566244125, 0.01600000075995922, 0.0, 0.0, 0.0, 0.0, 0.0, 0.0, 1.613351197185646E9, 2021-02-14 20:06:37.185
10.0, 6.017498970031738, 11.617999076843262, 9.873335838317871, 7.481669902801514, 0.08000000566244125, 0.01600000075995922, 0.527999997138977, 0.0, 0.0, 0.0, 0.0, 0.0, 1.613351197215627E9, 2021-02-14 20:06:37.215
10.0, 12.824116706848145, 19.587726593017578, 13.489819526672363, 14.3107271194458, 0.08000000566244125, 0.01600000075995922, 0.527999997138977, 0.0, 0.0, 0.0, 0.0, 0.0, 1.613351197215627E9, 2021-02-14 20:06:37.215
11.0, 20.15806007385254, 29.44236183166504, 27.910873413085938, 26.674837112426758, 0.08000000566244125, 0.0, 0.527999997138977, 0.0, 0.0, 0.0, 0.0, 0.0, 1.613351197216411E9, 2021-02-14 20:06:37.216
11.0, 12.278091430664062, 22.62452507019043, 14.87732219696045, 21.2033634185791, 0.08000000566244125, 0.0, 0.527999997138977, 0.0, 0.0, 0.0, 0.0, 0.0, 1.613351197216411E9, 2021-02-14 20:06:37.216
12.0, 10.419361114501953, 10.069680213928223, 6.593443393707275, 7.384432315826416, 0.03200000151991844, 0.0, 0.527999997138977, 0.0, 0.0, 0.0, 0.0, 0.0, 1.613351197217097E9, 2021-02-14 20:06:37.217
12.0, 18.50502586364746, 26.3270263671875, 16.545316696166992, 21.461416244506836, 0.03200000151991844, 0.0, 0.527999997138977, 0.0, 0.0, 0.0, 0.0, 0.0, 1.613351197217097E9, 2021-02-14 20:06:37.217
13.0, 21.07059669494629, 34.29301452636719, 31.014989852905273, 34.47626876831055, 0.03200000151991844, 0.0, 0.527999997138977, 0.0, 0.0, 0.0, 0.0, 0.0, 1.613351197229245E9, 2021-02-14 20:06:37.229
13.0, 8.833643913269043, 5.2227702140808105, 0.026179298758506775, 1.8493804931640625, 0.03200000151991844, 0.0, 0.527999997138977, 0.0, 0.0, 0.0, 0.0, 0.0, 1.613351197229245E9, 2021-02-14 20:06:37.229
14.0, 15.30741024017334, 19.060400009155273, 18.291851043701172, 21.02010726928711, 0.03200000151991844, 0.0, 0.527999997138977, 0.0, 0.0, 0.0, 0.0, 0.0, 1.613351197244841E9, 2021-02-14 20:06:37.244
14.0, 21.16783332824707, 30.09310531616211, 29.728464126586914, 30.09310531616211, 0.03200000151991844, 0.0, 0.527999997138977, 0.0, 0.0, 0.0, 0.0, 0.0, 1.613351197244841E9, 2021-02-14 20:06:37.244
15.0, 8.298837661743164, 14.179830551147461, 7.85004997253418, 2.956390857696533, 0.03200000151991844, 0.0, 0.527999997138977, 0.0, 0.0, 0.0, 0.0, 0.0, 1.613351197245623E9, 2021-02-14 20:06:37.245
15.0, 12.322970390319824, 20.00285530090332, 14.10316276550293, 18.428356170654297, 0.03200000151991844, 0.0, 0.527999997138977, 0.0, 0.0, 0.0, 0.0, 0.0, 1.613351197245623E9, 2021-02-14 20:06:37.245
16.0, 15.786117553710938, 27.785587310791016, 19.630735397338867, 23.540800094604492, 0.03200000151991844, 0.0, 0.527999997138977, 0.0, 0.0, 0.0, 0.0, 0.0, 1.613351197259204E9, 2021-02-14 20:06:37.259
16.0, 17.02028465270996, 21.165964126586914, 19.802770614624023, 26.420522689819336, 0.03200000151991844, 0.0, 0.527999997138977, 0.0, 0.0, 0.0, 0.0, 0.0, 1.613351197259204E9, 2021-02-14 20:06:37.259
17.0, 14.290157318115234, 13.921777725219727, 7.274105548858643, 6.670111656188965, 0.03200000151991844, 0.0, 0.527999997138977, 0.0, 0.0, 0.0, 0.0, 0.0, 1.613351197290611E9, 2021-02-14 20:06:37.290
17.0, 13.916167259216309, 20.272127151489258, 21.078075408935547, 19.075359344482422, 0.03200000151991844, 0.0, 0.527999997138977, 0.0, 0.0, 0.0, 0.0, 0.0, 1.613351197290611E9, 2021-02-14 20:06:37.290
18.0, 24.8366756439209, 34.72310256958008, 31.76671028137207, 36.933380126953125, 0.03200000151991844, 0.0, 0.527999997138977, 0.0, 0.0, 0.0, 0.0, 0.0, 1.613351197291493E9, 2021-02-14 20:06:37.291
18.0, 10.561477661132812, 10.069680213928223, 3.4332282543182373, 2.6422393321990967, 0.03200000151991844, 0.0, 0.527999997138977, 0.0, 0.0, 0.0, 0.0, 0.0, 1.613351197291493E9, 2021-02-14 20:06:37.291
19.0, 19.410079956054688, 17.90477180480957, 14.787564277648926, 13.465509414672852, 0.03200000151991844, 0.0, 0.527999997138977, 0.0, 0.0, 0.0, 0.0, 0.0, 1.613351197292071E9, 2021-02-14 20:06:37.292
19.0, 18.32176971435547, 28.44754981994629, 24.74317741394043, 27.56867218017578, 0.03200000151991844, 0.0, 0.527999997138977, 0.0, 0.0, 0.0, 0.0, 0.0, 1.613351197292071E9, 2021-02-14 20:06:37.292
20.0, 13.437460899353027, 11.255228996276855, 10.490419387817383, 11.475883483886719, 0.03200000151991844, 0.0, 0.784000039100647, 0.0, 0.0, 0.0, 0.0, 0.0, 1.613351197305075E9, 2021-02-14 20:06:37.305
20.0, 15.969372749328613, 16.386371612548828, 13.119568824768066, 11.666618347167969, 0.03200000151991844, 0.0, 0.784000039100647, 0.0, 0.0, 0.0, 0.0, 0.0, 1.613351197305075E9, 2021-02-14 20:06:37.305
21.0, 17.031503677368164, 25.324731826782227, 25.573436737060547, 20.855552673339844, 0.03200000151991844, 0.01600000075995922, 0.784000039100647, 0.0, 0.0, 0.0, 0.0, 0.0, 1.61335119730572E9, 2021-02-14 20:06:37.305
21.0, 19.533496856689453, 25.062938690185547, 21.377267837524414, 22.07849884033203, 0.03200000151991844, 0.01600000075995922, 0.784000039100647, 0.0, 0.0, 0.0, 0.0, 0.0, 1.61335119730572E9, 2021-02-14 20:06:37.305
22.0, 9.402108192443848, 10.537168502807617, 4.424301624298096, 7.859399795532227, 0.06400000303983688, 0.01600000075995922, 0.784000039100647, 0.0, 0.0, 0.0, 0.0, 0.0, 1.613351197319229E9, 2021-02-14 20:06:37.319
22.0, 17.674766540527344, 20.13749122619629, 19.1557674407959, 24.258861541748047, 0.06400000303983688, 0.01600000075995922, 0.784000039100647, 0.0, 0.0, 0.0, 0.0, 0.0, 1.613351197319229E9, 2021-02-14 20:06:37.319
23.0, 19.297883987426758, 29.790172576904297, 28.139007568359375, 31.248733520507812, 0.06400000303983688, 0.01600000075995922, 0.784000039100647, 0.0, 0.0, 0.0, 0.0, 0.0, 1.613351197349704E9, 2021-02-14 20:06:37.349
23.0, 8.104363441467285, 10.11829948425293, 3.1901347637176514, 0.9293651580810547, 0.06400000303983688, 0.01600000075995922, 0.784000039100647, 0.0, 0.0, 0.0, 0.0, 0.0, 1.613351197349704E9, 2021-02-14 20:06:37.349
24.0, 17.708425521850586, 24.124225616455078, 17.435413360595703, 17.130611419677734, 0.06400000303983688, 0.01600000075995922, 0.784000039100647, 0.0, 0.0, 0.0, 0.0, 0.0, 1.613351197366342E9, 2021-02-14 20:06:37.366
24.0, 18.9500732421875, 31.1103572845459, 27.750057220458984, 30.990680694580078, 0.06400000303983688, 0.01600000075995922, 0.784000039100647, 0.0, 0.0, 0.0, 0.0, 0.0, 1.613351197366342E9, 2021-02-14 20:06:37.366
25.0, 6.342870235443115, 14.673497200012207, 8.186640739440918, 10.275375366210938, 0.06400000303983688, 0.01600000075995922, 0.784000039100647, 0.0, 0.0, 0.0, 0.0, 0.0, 1.613351197367043E9, 2021-02-14 20:06:37.367
25.0, 13.07843017578125, 15.91888427734375, 13.47111988067627, 13.626325607299805, 0.06400000303983688, 0.01600000075995922, 0.784000039100647, 0.0, 0.0, 0.0, 0.0, 0.0, 1.613351197367043E9, 2021-02-14 20:06:37.367
26.0, 21.467025756835938, 26.61499786376953, 25.001232147216797, 28.223154067993164, 0.06400000303983688, 0.01600000075995922, 0.784000039100647, 0.0, 0.0, 0.0, 0.0, 0.0, 1.613351197367819E9, 2021-02-14 20:06:37.367
26.0, 22.435659408569336, 29.603178024291992, 22.181346893310547, 27.18720245361328, 0.06400000303983688, 0.01600000075995922, 0.784000039100647, 0.0, 0.0, 0.0, 0.0, 0.0, 1.613351197367819E9, 2021-02-14 20:06:37.367
27.0, 10.288464546203613, 9.669511795043945, 5.6435089111328125, 4.860000133514404, 0.06400000303983688, 0.01600000075995922, 0.784000039100647, 0.0, 0.0, 0.0, 0.0, 0.0, 1.613351197368582E9, 2021-02-14 20:06:37.368
27.0, 15.25879192352295, 19.984155654907227, 18.961292266845703, 21.106124877929688, 0.06400000303983688, 0.01600000075995922, 0.784000039100647, 0.0, 0.0, 0.0, 0.0, 0.0, 1.613351197368582E9, 2021-02-14 20:06:37.368
28.0, 15.587903022766113, 28.0585994720459, 27.31622886657715, 27.045085906982422, 0.06400000303983688, 0.01600000075995922, 0.784000039100647, 0.0, 0.0, 0.0, 0.0, 0.0, 1.613351197379269E9, 2021-02-14 20:06:37.379
28.0, 6.204493999481201, 10.877498626708984, 1.5632781982421875, 7.261015892028809, 0.06400000303983688, 0.01600000075995922, 0.784000039100647, 0.0, 0.0, 0.0, 0.0, 0.0, 1.613351197379269E9, 2021-02-14 20:06:37.379
29.0, 14.839922904968262, 21.121084213256836, 17.884201049804688, 19.101539611816406, 0.06400000303983688, 0.01600000075995922, 0.784000039100647, 0.0, 0.0, 0.0, 0.0, 0.0, 1.61335119739492E9, 2021-02-14 20:06:37.394
29.0, 20.37871551513672, 30.695228576660156, 25.666933059692383, 28.847719192504883, 0.06400000303983688, 0.01600000075995922, 0.784000039100647, 0.0, 0.0, 0.0, 0.0, 0.0, 1.61335119739492E9, 2021-02-14 20:06:37.394
30.0, 15.655220985412598, 14.179830551147461, 4.6337361335754395, 9.90512466430664, 0.06400000303983688, 0.01600000075995922, 0.9120000600814819, 0.0, 0.0, 0.0, 0.0, 0.0, 1.613351197395647E9, 2021-02-14 20:06:37.395
30.0, 10.999045372009277, 20.530179977416992, 10.84945011138916, 11.303847312927246, 0.06400000303983688, 0.01600000075995922, 0.9120000600814819, 0.0, 0.0, 0.0, 0.0, 0.0, 1.613351197395647E9, 2021-02-14 20:06:37.395
31.0, 15.37846851348877, 25.283594131469727, 23.927879333496094, 20.451642990112305, 0.06400000303983688, 0.01600000075995922, 0.9120000600814819, 0.0, 0.0, 0.0, 0.0, 0.0, 1.613351197409502E9, 2021-02-14 20:06:37.409
31.0, 21.59418296813965, 28.70934295654297, 21.710119247436523, 22.598344802856445, 0.06400000303983688, 0.01600000075995922, 0.9120000600814819, 0.0, 0.0, 0.0, 0.0, 0.0, 1.613351197409502E9, 2021-02-14 20:06:37.409
32.0, 14.963339805603027, 13.420631408691406, 2.5468719005584717, 7.874359130859375, 0.08000000566244125, 0.01600000075995922, 0.9120000600814819, 0.0, 0.0, 0.0, 0.0, 0.0, 1.613351197425102E9, 2021-02-14 20:06:37.425
32.0, 16.91556739807129, 21.786787033081055, 14.967079162597656, 20.25716781616211, 0.08000000566244125, 0.01600000075995922, 0.9120000600814819, 0.0, 0.0, 0.0, 0.0, 0.0, 1.613351197425102E9, 2021-02-14 20:06:37.425
33.0, 22.147687911987305, 24.6253719329834, 27.664039611816406, 33.990081787109375, 0.08000000566244125, 0.01600000075995922, 0.9120000600814819, 0.0, 0.0, 0.0, 0.0, 0.0, 1.613351197425714E9, 2021-02-14 20:06:37.425
33.0, 4.3906426429748535, 11.124332427978516, -1.5183993577957153, 3.6146132946014404, 0.08000000566244125, 0.01600000075995922, 0.9120000600814819, 0.0, 0.0, 0.0, 0.0, 0.0, 1.613351197425714E9, 2021-02-14 20:06:37.425
34.0, 17.753305435180664, 19.913097381591797, 17.513952255249023, 20.530179977416992, 0.08000000566244125, 0.01600000075995922, 0.9120000600814819, 0.0, 0.0, 0.0, 0.0, 0.0, 1.613351197439251E9, 2021-02-14 20:06:37.439
34.0, 25.812789916992188, 32.082733154296875, 32.327693939208984, 34.68196105957031, 0.08000000566244125, 0.01600000075995922, 0.9120000600814819, 0.0, 0.0, 0.0, 0.0, 0.0, 1.613351197439251E9, 2021-02-14 20:06:37.439
35.0, 13.00737190246582, 13.918037414550781, 7.045971393585205, 10.686763763427734, 0.08000000566244125, 0.01600000075995922, 0.9120000600814819, 0.0, 0.0, 0.0, 0.0, 0.0, 1.613351197454961E9, 2021-02-14 20:06:37.454
35.0, 16.679954528808594, 12.7848482131958, 9.357229232788086, 13.267294883728027, 0.08000000566244125, 0.01600000075995922, 0.9120000600814819, 0.0, 0.0, 0.0, 0.0, 0.0, 1.613351197454961E9, 2021-02-14 20:06:37.454
36.0, 18.669580459594727, 22.329072952270508, 22.173866271972656, 20.1000919342041, 0.08000000566244125, 0.01600000075995922, 0.9120000600814819, 0.0, 0.0, 0.0, 0.0, 0.0, 1.613351197455676E9, 2021-02-14 20:06:37.455
36.0, 14.649188041687012, 25.0068416595459, 24.372928619384766, 25.7810001373291, 0.08000000566244125, 0.01600000075995922, 0.9120000600814819, 0.0, 0.0, 0.0, 0.0, 0.0, 1.613351197455676E9, 2021-02-14 20:06:37.455
37.0, 7.9809465408325195, 14.766995429992676, 10.643754959106445, 8.33062744140625, 0.08000000566244125, 0.01600000075995922, 0.9120000600814819, 0.0, 0.0, 0.0, 0.0, 0.0, 1.613351197469229E9, 2021-02-14 20:06:37.469
37.0, 19.95236587524414, 23.806333541870117, 18.61722183227539, 19.150157928466797, 0.08000000566244125, 0.01600000075995922, 0.9120000600814819, 0.0, 0.0, 0.0, 0.0, 0.0, 1.613351197469229E9, 2021-02-14 20:06:37.469
38.0, 20.34879493713379, 30.6877498626709, 28.19884490966797, 29.89488983154297, 0.08000000566244125, 0.01600000075995922, 0.9120000600814819, 0.0, 0.0, 0.0, 0.0, 0.0, 1.613351197484686E9, 2021-02-14 20:06:37.484
38.0, 4.1176300048828125, 9.901385307312012, 2.228980302810669, 2.275729179382324, 0.08000000566244125, 0.01600000075995922, 0.9120000600814819, 0.0, 0.0, 0.0, 0.0, 0.0, 1.613351197484686E9, 2021-02-14 20:06:37.484
39.0, 13.314043998718262, 19.04170036315918, 14.780084609985352, 18.009489059448242, 0.08000000566244125, 0.01600000075995922, 0.9120000600814819, 0.0, 0.0, 0.0, 0.0, 0.0, 1.613351197499994E9, 2021-02-14 20:06:37.499
39.0, 18.70323944091797, 29.2142276763916, 27.742578506469727, 28.08477783203125, 0.08000000566244125, 0.01600000075995922, 0.9120000600814819, 0.0, 0.0, 0.0, 0.0, 0.0, 1.613351197499994E9, 2021-02-14 20:06:37.499
40.0, 6.458806991577148, 13.772181510925293, 10.408141136169434, 8.734536170959473, 0.08000000566244125, 0.01600000075995922, 0.9760000705718994, 0.0, 0.0, 0.0, 0.0, 0.0, 1.613351197500704E9, 2021-02-14 20:06:37.500
40.0, 16.03295135498047, 18.555513381958008, 14.36495590209961, 17.46720314025879, 0.08000000566244125, 0.01600000075995922, 0.9760000705718994, 0.0, 0.0, 0.0, 0.0, 0.0, 1.613351197500704E9, 2021-02-14 20:06:37.500
41.0, 20.10196304321289, 26.072711944580078, 20.513351440429688, 25.949295043945312, 0.08000000566244125, 0.01600000075995922, 0.9760000705718994, 0.0, 0.0, 0.0, 0.0, 0.0, 1.613351197514993E9, 2021-02-14 20:06:37.514
41.0, 18.957551956176758, 24.359838485717773, 23.460391998291016, 27.8529052734375, 0.08000000566244125, 0.01600000075995922, 0.9760000705718994, 0.0, 0.0, 0.0, 0.0, 0.0, 1.613351197514993E9, 2021-02-14 20:06:37.514
42.0, 11.829303741455078, 9.811627388000488, 1.7764524221420288, 3.195744514465332, 0.08000000566244125, 0.01600000075995922, 0.9760000705718994, 0.0, 0.0, 0.0, 0.0, 0.0, 1.613351197515731E9, 2021-02-14 20:06:37.515
42.0, 15.49814510345459, 19.172597885131836, 22.626394271850586, 21.91020393371582, 0.08000000566244125, 0.01600000075995922, 0.9760000705718994, 0.0, 0.0, 0.0, 0.0, 0.0, 1.613351197515731E9, 2021-02-14 20:06:37.515
43.0, 22.345901489257812, 28.09973907470703, 33.80869674682617, 30.45961570739746, 0.08000000566244125, 0.01600000075995922, 0.9760000705718994, 0.0, 0.0, 0.0, 0.0, 0.0, 1.613351197529198E9, 2021-02-14 20:06:37.529
43.0, 8.60176944732666, 9.437637329101562, 3.5753443241119385, 2.346787214279175, 0.08000000566244125, 0.01600000075995922, 0.9760000705718994, 0.0, 0.0, 0.0, 0.0, 0.0, 1.613351197529198E9, 2021-02-14 20:06:37.529
44.0, 12.528664588928223, 24.359838485717773, 16.358322143554688, 22.67314338684082, 0.08000000566244125, 0.01600000075995922, 0.9760000705718994, 0.0, 0.0, 0.0, 0.0, 0.0, 1.613351197560579E9, 2021-02-14 20:06:37.560
44.0, 16.84450912475586, 34.453826904296875, 28.632673263549805, 28.279253005981445, 0.08000000566244125, 0.01600000075995922, 0.9760000705718994, 0.0, 0.0, 0.0, 0.0, 0.0, 1.613351197560579E9, 2021-02-14 20:06:37.560
45.0, 10.927988052368164, 17.96086883544922, 10.247325897216797, 10.877498626708984, 0.08000000566244125, 0.01600000075995922, 0.9760000705718994, 0.0, 0.0, 0.0, 0.0, 0.0, 1.613351197561394E9, 2021-02-14 20:06:37.561
45.0, 16.234905242919922, 16.262954711914062, 15.707579612731934, 13.914298057556152, 0.08000000566244125, 0.01600000075995922, 0.9760000705718994, 0.0, 0.0, 0.0, 0.0, 0.0, 1.613351197561394E9, 2021-02-14 20:06:37.561
46.0, 16.036691665649414, 22.201915740966797, 20.318876266479492, 20.029033660888672, 0.08000000566244125, 0.01600000075995922, 0.9760000705718994, 0.0, 0.0, 0.0, 0.0, 0.0, 1.61335119756206E9, 2021-02-14 20:06:37.562
46.0, 15.05683708190918, 24.831066131591797, 19.851388931274414, 19.370811462402344, 0.08000000566244125, 0.01600000075995922, 0.9760000705718994, 0.0, 0.0, 0.0, 0.0, 0.0, 1.61335119756206E9, 2021-02-14 20:06:37.562
47.0, 13.71047306060791, 10.338953018188477, 3.1639554500579834, 5.417244911193848, 0.08000000566244125, 0.01600000075995922, 0.9760000705718994, 0.0, 0.0, 0.0, 0.0, 0.0, 1.613351197574946E9, 2021-02-14 20:06:37.574
47.0, 16.51165771484375, 23.68291664123535, 21.863454818725586, 21.62223243713379, 0.08000000566244125, 0.01600000075995922, 0.9760000705718994, 0.0, 0.0, 0.0, 0.0, 0.0, 1.613351197574946E9, 2021-02-14 20:06:37.574
48.0, 22.84330940246582, 30.418476104736328, 31.751750946044922, 31.4918270111084, 0.08000000566244125, 0.01600000075995922, 0.9760000705718994, 0.0, 0.0, 0.0, 0.0, 0.0, 1.613351197575687E9, 2021-02-14 20:06:37.575
48.0, 10.673674583435059, 12.377199172973633, 4.405601978302002, 3.8315274715423584, 0.08000000566244125, 0.01600000075995922, 0.9760000705718994, 0.0, 0.0, 0.0, 0.0, 0.0, 1.613351197575687E9, 2021-02-14 20:06:37.575
49.0, 17.046464920043945, 21.09864616394043, 13.729172706604004, 18.2226619720459, 0.08000000566244125, 0.01600000075995922, 0.9760000705718994, 0.0, 0.0, 0.0, 0.0, 0.0, 1.613351197589295E9, 2021-02-14 20:06:37.589
49.0, 20.225378036499023, 28.944955825805664, 22.293542861938477, 30.08562469482422, 0.08000000566244125, 0.01600000075995922, 0.9760000705718994, 0.0, 0.0, 0.0, 0.0, 0.0, 1.613351197589295E9, 2021-02-14 20:06:37.589
50.0, 7.6219162940979, 12.541754722595215, 15.124155044555664, 9.235682487487793, 0.08000000566244125, 0.01600000075995922, 1.0080000162124634, 0.0, 0.0, 0.0, 0.0, 0.0, 1.613351197604899E9, 2021-02-14 20:06:37.604
50.0, 10.950427055358887, 19.18381690979004, 14.566910743713379, 12.3360595703125, 0.08000000566244125, 0.01600000075995922, 1.0080000162124634, 0.0, 0.0, 0.0, 0.0, 0.0, 1.613351197604899E9, 2021-02-14 20:06:37.604
51.0, 16.03295135498047, 24.17284393310547, 23.83812141418457, 21.40157699584961, 0.08000000566244125, 0.01600000075995922, 1.0080000162124634, 0.0, 0.0, 0.0, 0.0, 0.0, 1.61335119760561E9, 2021-02-14 20:06:37.605
51.0, 20.48343276977539, 25.81839942932129, 25.25928497314453, 21.715728759765625, 0.08000000566244125, 0.01600000075995922, 1.0080000162124634, 0.0, 0.0, 0.0, 0.0, 0.0, 1.61335119760561E9, 2021-02-14 20:06:37.605
52.0, 9.50682544708252, 13.435590744018555, 3.7885186672210693, 5.9034318923950195, 0.08000000566244125, 0.01600000075995922, 1.0080000162124634, 0.0, 0.0, 0.0, 0.0, 0.0, 1.613351197635662E9, 2021-02-14 20:06:37.635
52.0, 16.156368255615234, 20.346925735473633, 18.987472534179688, 18.13664436340332, 0.08000000566244125, 0.01600000075995922, 1.0080000162124634, 0.0, 0.0, 0.0, 0.0, 0.0, 1.613351197635662E9, 2021-02-14 20:06:37.635
53.0, 20.965879440307617, 28.406410217285156, 26.025964736938477, 35.788970947265625, 0.08000000566244125, 0.01600000075995922, 1.0080000162124634, 0.0, 0.0, 0.0, 0.0, 0.0, 1.613351197636418E9, 2021-02-14 20:06:37.636
53.0, 12.135974884033203, 14.26210880279541, 2.8460638523101807, 4.302754878997803, 0.08000000566244125, 0.01600000075995922, 1.0080000162124634, 0.0, 0.0, 0.0, 0.0, 0.0, 1.613351197636418E9, 2021-02-14 20:06:37.636
54.0, 16.1451473236084, 18.20770263671875, 18.49754524230957, 11.849872589111328, 0.08000000566244125, 0.01600000075995922, 1.0080000162124634, 0.0, 0.0, 0.0, 0.0, 0.0, 1.613351197637091E9, 2021-02-14 20:06:37.637
54.0, 15.561723709106445, 28.443809509277344, 24.09991455078125, 29.62561798095703, 0.08000000566244125, 0.01600000075995922, 1.0080000162124634, 0.0, 0.0, 0.0, 0.0, 0.0, 1.613351197637091E9, 2021-02-14 20:06:37.637
55.0, 11.638568878173828, 20.444162368774414, 10.860669136047363, 12.410858154296875, 0.08000000566244125, 0.01600000075995922, 1.0080000162124634, 0.0, 0.0, 0.0, 0.0, 0.0, 1.613351197649217E9, 2021-02-14 20:06:37.649
55.0, 12.68574047088623, 21.136045455932617, 12.734359741210938, 9.624632835388184, 0.08000000566244125, 0.01600000075995922, 1.0080000162124634, 0.0, 0.0, 0.0, 0.0, 0.0, 1.613351197649217E9, 2021-02-14 20:06:37.649
56.0, 15.311150550842285, 27.071266174316406, 24.380407333374023, 27.714529037475586, 0.08000000566244125, 0.01600000075995922, 1.0080000162124634, 0.0, 0.0, 0.0, 0.0, 0.0, 1.613351197664907E9, 2021-02-14 20:06:37.664
56.0, 20.042123794555664, 21.970043182373047, 24.690818786621094, 26.420522689819336, 0.08000000566244125, 0.01600000075995922, 1.0080000162124634, 0.0, 0.0, 0.0, 0.0, 0.0, 1.613351197664907E9, 2021-02-14 20:06:37.664
57.0, 13.429980278015137, 12.822246551513672, 6.3241705894470215, 9.467556953430176, 0.08000000566244125, 0.01600000075995922, 1.0080000162124634, 0.0, 0.0, 0.0, 0.0, 0.0, 1.613351197665644E9, 2021-02-14 20:06:37.665
57.0, 15.494405746459961, 22.916236877441406, 17.56631088256836, 22.452489852905273, 0.08000000566244125, 0.01600000075995922, 1.0080000162124634, 0.0, 0.0, 0.0, 0.0, 0.0, 1.613351197665644E9, 2021-02-14 20:06:37.665
58.0, 17.6298885345459, 26.626216888427734, 27.409727096557617, 33.10746383666992, 0.08000000566244125, 0.01600000075995922, 1.0080000162124634, 0.0, 0.0, 0.0, 0.0, 0.0, 1.61335119767924E9, 2021-02-14 20:06:37.679
58.0, 10.894328117370605, 7.792081356048584, 5.482693195343018, -1.725963830947876, 0.08000000566244125, 0.01600000075995922, 1.0080000162124634, 0.0, 0.0, 0.0, 0.0, 0.0, 1.61335119767924E9, 2021-02-14 20:06:37.679
59.0, 17.4241943359375, 22.56094741821289, 14.207880020141602, 23.02843475341797, 0.08000000566244125, 0.01600000075995922, 1.0080000162124634, 0.0, 0.0, 0.0, 0.0, 0.0, 1.613351197709661E9, 2021-02-14 20:06:37.709
59.0, 22.222484588623047, 24.59545135498047, 26.89362144470215, 30.84108543395996, 0.08000000566244125, 0.01600000075995922, 1.0080000162124634, 0.0, 0.0, 0.0, 0.0, 0.0, 1.613351197709661E9, 2021-02-14 20:06:37.709
60.0, 8.953320503234863, 13.704863548278809, 7.2441864013671875, 14.396744728088379, 0.08000000566244125, 0.01600000075995922, 1.0240000486373901, 0.0, 0.0, 0.0, 0.0, 0.0, 1.613351197726305E9, 2021-02-14 20:06:37.726
60.0, 12.854036331176758, 13.188756942749023, 10.654974937438965, 15.503755569458008, 0.08000000566244125, 0.01600000075995922, 1.0240000486373901, 0.0, 0.0, 0.0, 0.0, 0.0, 1.613351197726305E9, 2021-02-14 20:06:37.726
61.0, 18.516244888305664, 25.12651824951172, 19.567155838012695, 25.736122131347656, 0.08000000566244125, 0.01600000075995922, 1.0240000486373901, 0.0, 0.0, 0.0, 0.0, 0.0, 1.613351197727023E9, 2021-02-14 20:06:37.727
61.0, 15.546764373779297, 26.55889892578125, 17.43915367126465, 25.264894485473633, 0.08000000566244125, 0.01600000075995922, 1.0240000486373901, 0.0, 0.0, 0.0, 0.0, 0.0, 1.613351197727023E9, 2021-02-14 20:06:37.727
62.0, 7.427441120147705, 12.515575408935547, 12.921354293823242, 6.703770637512207, 0.08000000566244125, 0.01600000075995922, 1.0240000486373901, 0.0, 0.0, 0.0, 0.0, 0.0, 1.613351197727791E9, 2021-02-14 20:06:37.727
62.0, 15.778637886047363, 24.760007858276367, 21.702638626098633, 19.69244384765625, 0.08000000566244125, 0.01600000075995922, 1.0240000486373901, 0.0, 0.0, 0.0, 0.0, 0.0, 1.613351197727791E9, 2021-02-14 20:06:37.727
63.0, 21.67646026611328, 33.04762649536133, 29.56390953063965, 32.13508987426758, 0.08000000566244125, 0.01600000075995922, 1.0240000486373901, 0.0, 0.0, 0.0, 0.0, 0.0, 1.613351197728504E9, 2021-02-14 20:06:37.728
63.0, 8.74014663696289, 9.14218521118164, 6.413928508758545, 6.441977500915527, 0.08000000566244125, 0.01600000075995922, 1.0240000486373901, 0.0, 0.0, 0.0, 0.0, 0.0, 1.613351197728504E9, 2021-02-14 20:06:37.728
64.0, 19.297883987426758, 21.928903579711914, 19.129589080810547, 20.12253189086914, 0.08000000566244125, 0.01600000075995922, 1.0240000486373901, 0.0, 0.0, 0.0, 0.0, 0.0, 1.613351197739277E9, 2021-02-14 20:06:37.739
64.0, 21.908334732055664, 28.526086807250977, 26.77768325805664, 29.311466217041016, 0.08000000566244125, 0.01600000075995922, 1.0240000486373901, 0.0, 0.0, 0.0, 0.0, 0.0, 1.613351197739277E9, 2021-02-14 20:06:37.739
65.0, 13.643155097961426, 16.12457847595215, 3.6875412464141846, 6.614013195037842, 0.08000000566244125, 0.01600000075995922, 1.0240000486373901, 0.0, 0.0, 0.0, 0.0, 0.0, 1.613351197770629E9, 2021-02-14 20:06:37.770
65.0, 16.08905029296875, 14.209750175476074, 8.702747344970703, 13.592666625976562, 0.08000000566244125, 0.01600000075995922, 1.0240000486373901, 0.0, 0.0, 0.0, 0.0, 0.0, 1.613351197770629E9, 2021-02-14 20:06:37.770
66.0, 16.17880630493164, 23.828773498535156, 19.95984649658203, 21.906463623046875, 0.08000000566244125, 0.01600000075995922, 1.0240000486373901, 0.0, 0.0, 0.0, 0.0, 0.0, 1.613351197771435E9, 2021-02-14 20:06:37.771
66.0, 16.3209228515625, 23.679176330566406, 19.481138229370117, 20.219768524169922, 0.08000000566244125, 0.01600000075995922, 1.0240000486373901, 0.0, 0.0, 0.0, 0.0, 0.0, 1.613351197771435E9, 2021-02-14 20:06:37.771
67.0, 8.43347454071045, 11.229049682617188, 5.497653007507324, 1.6923047304153442, 0.08000000566244125, 0.01600000075995922, 1.0240000486373901, 0.0, 0.0, 0.0, 0.0, 0.0, 1.613351197772253E9, 2021-02-14 20:06:37.772
67.0, 17.065162658691406, 22.048580169677734, 16.388240814208984, 16.558406829833984, 0.08000000566244125, 0.01600000075995922, 1.0240000486373901, 0.0, 0.0, 0.0, 0.0, 0.0, 1.613351197772253E9, 2021-02-14 20:06:37.772
68.0, 21.519384384155273, 30.41099739074707, 26.1568603515625, 32.520301818847656, 0.08000000566244125, 0.01600000075995922, 1.0240000486373901, 0.0, 0.0, 0.0, 0.0, 0.0, 1.613351197784935E9, 2021-02-14 20:06:37.784
68.0, 11.926541328430176, 10.772781372070312, 6.69442081451416, 0.469357430934906, 0.08000000566244125, 0.01600000075995922, 1.0240000486373901, 0.0, 0.0, 0.0, 0.0, 0.0, 1.613351197784935E9, 2021-02-14 20:06:37.784
69.0, 16.4555606842041, 23.073312759399414, 12.098576545715332, 20.006595611572266, 0.08000000566244125, 0.01600000075995922, 1.0240000486373901, 0.0, 0.0, 0.0, 0.0, 0.0, 1.613351197785666E9, 2021-02-14 20:06:37.785
69.0, 21.0219783782959, 31.734920501708984, 28.43071937561035, 27.198421478271484, 0.08000000566244125, 0.01600000075995922, 1.0240000486373901, 0.0, 0.0, 0.0, 0.0, 0.0, 1.613351197785666E9, 2021-02-14 20:06:37.785
70.0, 6.881415843963623, 12.164024353027344, 9.170234680175781, 12.107926368713379, 0.08000000566244125, 0.01600000075995922, 1.040000081062317, 0.0, 0.0, 0.0, 0.0, 0.0, 1.613351197799263E9, 2021-02-14 20:06:37.799
70.0, 8.822423934936523, 17.025894165039062, 10.13512897491455, 8.655998229980469, 0.08000000566244125, 0.01600000075995922, 1.040000081062317, 0.0, 0.0, 0.0, 0.0, 0.0, 1.613351197799263E9, 2021-02-14 20:06:37.799
71.0, 20.199199676513672, 22.31411361694336, 23.33697509765625, 26.282146453857422, 0.08000000566244125, 0.01600000075995922, 1.040000081062317, 0.0, 0.0, 0.0, 0.0, 0.0, 1.613351197814932E9, 2021-02-14 20:06:37.814
71.0, 22.054189682006836, 26.31206703186035, 26.21295928955078, 29.606918334960938, 0.08000000566244125, 0.01600000075995922, 1.040000081062317, 0.0, 0.0, 0.0, 0.0, 0.0, 1.613351197814932E9, 2021-02-14 20:06:37.814
72.0, 12.330450057983398, 15.200823783874512, 7.633135795593262, 9.662031173706055, 0.08000000566244125, 0.01600000075995922, 1.040000081062317, 0.0, 0.0, 0.0, 0.0, 0.0, 1.613351197815676E9, 2021-02-14 20:06:37.815
72.0, 14.0321044921875, 17.411104202270508, 15.228872299194336, 16.20311737060547, 0.08000000566244125, 0.01600000075995922, 1.040000081062317, 0.0, 0.0, 0.0, 0.0, 0.0, 1.613351197815676E9, 2021-02-14 20:06:37.815
73.0, 19.174467086791992, 28.698122024536133, 32.70542526245117, 29.09455108642578, 0.08000000566244125, 0.01600000075995922, 1.040000081062317, 0.0, 0.0, 0.0, 0.0, 0.0, 1.613351197845585E9, 2021-02-14 20:06:37.845
73.0, 8.246479034423828, 8.412904739379883, 0.4375683069229126, 4.452351093292236, 0.08000000566244125, 0.01600000075995922, 1.040000081062317, 0.0, 0.0, 0.0, 0.0, 0.0, 1.613351197845585E9, 2021-02-14 20:06:37.845
74.0, 13.119568824768066, 22.381431579589844, 17.977699279785156, 19.879438400268555, 0.08000000566244125, 0.01600000075995922, 1.040000081062317, 0.0, 0.0, 0.0, 0.0, 0.0, 1.613351197846676E9, 2021-02-14 20:06:37.846
74.0, 20.74522590637207, 35.4523811340332, 30.86165428161621, 34.53236770629883, 0.08000000566244125, 0.01600000075995922, 1.040000081062317, 0.0, 0.0, 0.0, 0.0, 0.0, 1.613351197846676E9, 2021-02-14 20:06:37.846
75.0, 13.2691650390625, 17.57939910888672, 9.581624031066895, 11.543201446533203, 0.08000000566244125, 0.01600000075995922, 1.040000081062317, 0.0, 0.0, 0.0, 0.0, 0.0, 1.613351197847093E9, 2021-02-14 20:06:37.847
75.0, 16.298484802246094, 16.722963333129883, 12.558584213256836, 14.991389274597168, 0.08000000566244125, 0.01600000075995922, 1.040000081062317, 0.0, 0.0, 0.0, 0.0, 0.0, 1.613351197847093E9, 2021-02-14 20:06:37.847
76.0, 12.674520492553711, 26.506540298461914, 24.088695526123047, 28.623323440551758, 0.08000000566244125, 0.01600000075995922, 1.040000081062317, 0.0, 0.0, 0.0, 0.0, 0.0, 1.613351197859227E9, 2021-02-14 20:06:37.859
76.0, 15.812296867370605, 27.220861434936523, 25.41636085510254, 27.953882217407227, 0.08000000566244125, 0.01600000075995922, 1.040000081062317, 0.0, 0.0, 0.0, 0.0, 0.0, 1.613351197859227E9, 2021-02-14 20:06:37.859
77.0, 7.46858024597168, 8.697136878967285, 8.179161071777344, 0.7087110280990601, 0.08000000566244125, 0.01600000075995922, 1.040000081062317, 0.0, 0.0, 0.0, 0.0, 0.0, 1.613351197874953E9, 2021-02-14 20:06:37.874
77.0, 14.907240867614746, 24.337398529052734, 19.630735397338867, 17.485902786254883, 0.08000000566244125, 0.01600000075995922, 1.040000081062317, 0.0, 0.0, 0.0, 0.0, 0.0, 1.613351197874953E9, 2021-02-14 20:06:37.874
78.0, 21.54930305480957, 32.116390228271484, 29.807003021240234, 33.500152587890625, 0.08000000566244125, 0.01600000075995922, 1.040000081062317, 0.0, 0.0, 0.0, 0.0, 0.0, 1.613351197875658E9, 2021-02-14 20:06:37.875
78.0, 11.761985778808594, 14.647317886352539, 0.3926894962787628, 5.6827778816223145, 0.08000000566244125, 0.01600000075995922, 1.040000081062317, 0.0, 0.0, 0.0, 0.0, 0.0, 1.613351197875658E9, 2021-02-14 20:06:37.875
79.0, 14.649188041687012, 19.999114990234375, 15.2438325881958, 17.65793800354004, 0.08000000566244125, 0.01600000075995922, 1.040000081062317, 0.0, 0.0, 0.0, 0.0, 0.0, 1.613351197921908E9, 2021-02-14 20:06:37.921
79.0, 17.484031677246094, 24.498214721679688, 26.717845916748047, 26.719715118408203, 0.08000000566244125, 0.01600000075995922, 1.040000081062317, 0.0, 0.0, 0.0, 0.0, 0.0, 1.613351197921908E9, 2021-02-14 20:06:37.921
80.0, 14.660408020019531, 15.354159355163574, 9.581624031066895, 12.672651290893555, 0.08000000566244125, 0.01600000075995922, 1.040000081062317, 0.0, 0.0, 0.0, 0.0, 0.0, 1.613351197922649E9, 2021-02-14 20:06:37.922
80.0, 9.1141357421875, 14.752035140991211, 5.9427008628845215, 12.481916427612305, 0.08000000566244125, 0.01600000075995922, 1.040000081062317, 0.0, 0.0, 0.0, 0.0, 0.0, 1.613351197922649E9, 2021-02-14 20:06:37.922
81.0, 15.823516845703125, 25.130258560180664, 22.13646697998047, 25.48554801940918, 0.08000000566244125, 0.01600000075995922, 1.040000081062317, 0.0, 0.0, 0.0, 0.0, 0.0, 1.613351197923427E9, 2021-02-14 20:06:37.923
81.0, 19.612035751342773, 26.102632522583008, 22.2075252532959, 31.001901626586914, 0.08000000566244125, 0.01600000075995922, 1.040000081062317, 0.0, 0.0, 0.0, 0.0, 0.0, 1.613351197923427E9, 2021-02-14 20:06:37.923
82.0, 12.36410903930664, 11.50206184387207, 5.882862567901611, 10.645625114440918, 0.08000000566244125, 0.01600000075995922, 1.040000081062317, 0.0, 0.0, 0.0, 0.0, 0.0, 1.613351197924155E9, 2021-02-14 20:06:37.924
82.0, 19.503578186035156, 22.95737648010254, 20.173019409179688, 15.98994255065918, 0.08000000566244125, 0.01600000075995922, 1.040000081062317, 0.0, 0.0, 0.0, 0.0, 0.0, 1.613351197924155E9, 2021-02-14 20:06:37.924
83.0, 21.369789123535156, 26.917930603027344, 26.628087997436523, 31.600284576416016, 0.08000000566244125, 0.01600000075995922, 1.040000081062317, 0.0, 0.0, 0.0, 0.0, 0.0, 1.613351197934914E9, 2021-02-14 20:06:37.934
83.0, 3.0255789756774902, 9.168364524841309, 6.256852626800537, 2.6422393321990967, 0.08000000566244125, 0.01600000075995922, 1.040000081062317, 0.0, 0.0, 0.0, 0.0, 0.0, 1.613351197934914E9, 2021-02-14 20:06:37.934
84.0, 13.325263977050781, 22.134597778320312, 18.026317596435547, 19.726102828979492, 0.08000000566244125, 0.01600000075995922, 1.040000081062317, 0.0, 0.0, 0.0, 0.0, 0.0, 1.61335119793566E9, 2021-02-14 20:06:37.935
84.0, 21.897113800048828, 27.06004524230957, 26.02222442626953, 33.092506408691406, 0.08000000566244125, 0.01600000075995922, 1.040000081062317, 0.0, 0.0, 0.0, 0.0, 0.0, 1.61335119793566E9, 2021-02-14 20:06:37.935
85.0, 10.714813232421875, 16.95109748840332, 13.41128158569336, 15.952543258666992, 0.08000000566244125, 0.01600000075995922, 1.040000081062317, 0.0, 0.0, 0.0, 0.0, 0.0, 1.613351197949166E9, 2021-02-14 20:06:37.949
85.0, 14.959599494934082, 13.846979141235352, 12.150935173034668, 6.610273361206055, 0.08000000566244125, 0.01600000075995922, 1.040000081062317, 0.0, 0.0, 0.0, 0.0, 0.0, 1.613351197949166E9, 2021-02-14 20:06:37.949
86.0, 17.405494689941406, 23.821292877197266, 17.962739944458008, 22.94241714477539, 0.08000000566244125, 0.01600000075995922, 1.040000081062317, 0.0, 0.0, 0.0, 0.0, 0.0, 1.613351197980625E9, 2021-02-14 20:06:37.980
86.0, 16.37702178955078, 22.804040908813477, 19.73545265197754, 25.115297317504883, 0.08000000566244125, 0.01600000075995922, 1.040000081062317, 0.0, 0.0, 0.0, 0.0, 0.0, 1.613351197980625E9, 2021-02-14 20:06:37.980
87.0, 9.44324779510498, 11.214090347290039, 6.63458251953125, 1.7110042572021484, 0.08000000566244125, 0.01600000075995922, 1.040000081062317, 0.0, 0.0, 0.0, 0.0, 0.0, 1.613351197981428E9, 2021-02-14 20:06:37.981
87.0, 17.745824813842773, 25.489288330078125, 20.27773666381836, 17.23906898498535, 0.08000000566244125, 0.01600000075995922, 1.040000081062317, 0.0, 0.0, 0.0, 0.0, 0.0, 1.613351197981428E9, 2021-02-14 20:06:37.981
88.0, 22.46183967590332, 28.780399322509766, 31.445077896118164, 31.80223846435547, 0.08000000566244125, 0.01600000075995922, 1.040000081062317, 0.0, 0.0, 0.0, 0.0, 0.0, 1.613351197982136E9, 2021-02-14 20:06:37.982
88.0, 9.050558090209961, 9.54609489440918, 1.918568730354309, 3.03118896484375, 0.08000000566244125, 0.01600000075995922, 1.040000081062317, 0.0, 0.0, 0.0, 0.0, 0.0, 1.613351197982136E9, 2021-02-14 20:06:37.982
89.0, 17.0838623046875, 19.116498947143555, 16.504179000854492, 19.666263580322266, 0.08000000566244125, 0.01600000075995922, 1.040000081062317, 0.0, 0.0, 0.0, 0.0, 0.0, 1.61335119799496E9, 2021-02-14 20:06:37.994
89.0, 16.77345085144043, 27.78184700012207, 29.57512855529785, 29.1730899810791, 0.08000000566244125, 0.01600000075995922, 1.040000081062317, 0.0, 0.0, 0.0, 0.0, 0.0, 1.61335119799496E9, 2021-02-14 20:06:37.994
90.0, 14.637968063354492, 17.702816009521484, 12.300531387329102, 10.63066577911377, 0.08000000566244125, 0.01600000075995922, 1.040000081062317, 0.0, 0.0, 0.0, 0.0, 0.0, 1.613351197995661E9, 2021-02-14 20:06:37.995
90.0, 16.58271598815918, 21.43523597717285, 11.376775741577148, 11.902231216430664, 0.08000000566244125, 0.01600000075995922, 1.040000081062317, 0.0, 0.0, 0.0, 0.0, 0.0, 1.613351197995661E9, 2021-02-14 20:06:37.995
91.0, 21.197751998901367, 27.362977981567383, 22.81338882446289, 25.070419311523438, 0.08000000566244125, 0.01600000075995922, 1.040000081062317, 0.0, 0.0, 0.0, 0.0, 0.0, 1.613351198009195E9, 2021-02-14 20:06:38.009
91.0, 17.285818099975586, 22.777860641479492, 23.927879333496094, 25.706201553344727, 0.08000000566244125, 0.01600000075995922, 1.040000081062317, 0.0, 0.0, 0.0, 0.0, 0.0, 1.613351198009195E9, 2021-02-14 20:06:38.009
92.0, 10.438060760498047, 6.464416980743408, 5.407895565032959, 6.595313549041748, 0.08000000566244125, 0.01600000075995922, 1.040000081062317, 0.0, 0.0, 0.0, 0.0, 0.0, 1.613351198040539E9, 2021-02-14 20:06:38.040
92.0, 19.750411987304688, 21.84662628173828, 15.999292373657227, 22.534767150878906, 0.08000000566244125, 0.01600000075995922, 1.040000081062317, 0.0, 0.0, 0.0, 0.0, 0.0, 1.613351198040539E9, 2021-02-14 20:06:38.040
93.0, 21.545562744140625, 34.60716247558594, 31.897605895996094, 31.544185638427734, 0.08000000566244125, 0.01600000075995922, 1.040000081062317, 0.0, 0.0, 0.0, 0.0, 0.0, 1.613351198041433E9, 2021-02-14 20:06:38.041
93.0, 11.503931999206543, 6.958083629608154, 1.1780685186386108, 0.951804518699646, 0.08000000566244125, 0.01600000075995922, 1.040000081062317, 0.0, 0.0, 0.0, 0.0, 0.0, 1.613351198041433E9, 2021-02-14 20:06:38.041
94.0, 18.224533081054688, 21.345478057861328, 14.069503784179688, 21.102384567260742, 0.08000000566244125, 0.01600000075995922, 1.040000081062317, 0.0, 0.0, 0.0, 0.0, 0.0, 1.613351198042087E9, 2021-02-14 20:06:38.042
94.0, 20.442293167114258, 30.796205520629883, 24.39162826538086, 28.152097702026367, 0.08000000566244125, 0.01600000075995922, 1.040000081062317, 0.0, 0.0, 0.0, 0.0, 0.0, 1.613351198042087E9, 2021-02-14 20:06:38.042
95.0, 10.606356620788574, 17.76265525817871, 11.66100788116455, 7.735982894897461, 0.08000000566244125, 0.01600000075995922, 1.040000081062317, 0.0, 0.0, 0.0, 0.0, 0.0, 1.613351198054936E9, 2021-02-14 20:06:38.054
95.0, 10.430581092834473, 15.713190078735352, 12.334190368652344, 10.252935409545898, 0.08000000566244125, 0.01600000075995922, 1.040000081062317, 0.0, 0.0, 0.0, 0.0, 0.0, 1.613351198054936E9, 2021-02-14 20:06:38.054
96.0, 20.78636360168457, 26.18490982055664, 22.054189682006836, 22.57964515686035, 0.08000000566244125, 0.01600000075995922, 1.040000081062317, 0.0, 0.0, 0.0, 0.0, 0.0, 1.613351198055712E9, 2021-02-14 20:06:38.055
96.0, 22.566556930541992, 27.95014190673828, 27.768756866455078, 32.56892013549805, 0.08000000566244125, 0.01600000075995922, 1.040000081062317, 0.0, 0.0, 0.0, 0.0, 0.0, 1.613351198055712E9, 2021-02-14 20:06:38.055
97.0, 12.610942840576172, 5.686517715454102, 7.304024696350098, 9.957483291625977, 0.08000000566244125, 0.01600000075995922, 1.040000081062317, 0.0, 0.0, 0.0, 0.0, 0.0, 1.613351198069258E9, 2021-02-14 20:06:38.069
97.0, 14.062024116516113, 19.277315139770508, 12.962492942810059, 17.545740127563477, 0.08000000566244125, 0.01600000075995922, 1.040000081062317, 0.0, 0.0, 0.0, 0.0, 0.0, 1.613351198069258E9, 2021-02-14 20:06:38.069
98.0, 18.602262496948242, 28.421369552612305, 25.263023376464844, 28.268033981323242, 0.08000000566244125, 0.01600000075995922, 1.040000081062317, 0.0, 0.0, 0.0, 0.0, 0.0, 1.613351198084927E9, 2021-02-14 20:06:38.084
98.0, 11.93402099609375, 10.757822036743164, 6.948734283447266, 5.809934616088867, 0.08000000566244125, 0.01600000075995922, 1.040000081062317, 0.0, 0.0, 0.0, 0.0, 0.0, 1.613351198084927E9, 2021-02-14 20:06:38.084
99.0, 13.908687591552734, 25.190095901489258, 14.559430122375488, 19.389511108398438, 0.08000000566244125, 0.01600000075995922, 1.040000081062317, 0.0, 0.0, 0.0, 0.0, 0.0, 1.613351198085667E9, 2021-02-14 20:06:38.085
99.0, 22.5590763092041, 31.884517669677734, 29.792043685913086, 28.72804069519043, 0.08000000566244125, 0.01600000075995922, 1.040000081062317, 0.0, 0.0, 0.0, 0.0, 0.0, 1.613351198085667E9, 2021-02-14 20:06:38.085
100.0, 14.742685317993164, 19.363332748413086, 6.447587490081787, 11.670357704162598, 0.08000000566244125, 0.01600000075995922, 1.040000081062317, 0.0, 0.0, 0.0, 0.0, 0.0, 1.613351198099909E9, 2021-02-14 20:06:38.099
100.0, 11.141161918640137, 16.22929573059082, 10.625055313110352, 8.558760643005371, 0.08000000566244125, 0.01600000075995922, 1.040000081062317, 0.0, 0.0, 0.0, 0.0, 0.0, 1.613351198099909E9, 2021-02-14 20:06:38.099
0.0, 17.549480438232422, 25.418230056762695, 21.390357971191406, 21.876544952392578, 0.08000000566244125, 0.01600000075995922, 1.040000081062317, 0.0, 0.0, 0.0, 0.0, 0.0, 1.613351198100617E9, 2021-02-14 20:06:38.100
1.0, 18.013227462768555, 28.518606185913086, 26.117591857910156, 28.013721466064453, 0.08000000566244125, 0.01600000075995922, 1.040000081062317, 0.0, 0.0, 0.0, 0.0, 0.0, 1.613351198114251E9, 2021-02-14 20:06:38.114
1.0, 9.097306251525879, 10.196837425231934, 4.7590227127075195, 2.6085801124572754, 0.08000000566244125, 0.01600000075995922, 1.040000081062317, 0.0, 0.0, 0.0, 0.0, 0.0, 1.613351198114251E9, 2021-02-14 20:06:38.114
2.0, 15.866525650024414, 22.94989585876465, 21.8316650390625, 20.3057861328125, 0.08000000566244125, 0.01600000075995922, 1.040000081062317, 0.0, 0.0, 0.0, 0.0, 0.0, 1.613351198129954E9, 2021-02-14 20:06:38.129
2.0, 18.869665145874023, 28.499908447265625, 30.95328140258789, 32.15378952026367, 0.08000000566244125, 0.01600000075995922, 1.040000081062317, 0.0, 0.0, 0.0, 0.0, 0.0, 1.613351198129954E9, 2021-02-14 20:06:38.129
3.0, 6.531735420227051, 11.71523666381836, 1.1313197612762451, 7.717283725738525, 0.08000000566244125, 0.01600000075995922, 1.040000081062317, 0.0, 0.0, 0.0, 0.0, 0.0, 1.613351198130647E9, 2021-02-14 20:06:38.130
3.0, 13.88063907623291, 20.61619758605957, 20.664817810058594, 18.87340545654297, 0.08000000566244125, 0.01600000075995922, 1.040000081062317, 0.0, 0.0, 0.0, 0.0, 0.0, 1.613351198130647E9, 2021-02-14 20:06:38.130
4.0, 18.5742130279541, 31.910696029663086, 25.73986053466797, 30.747587203979492, 0.08000000566244125, 0.01600000075995922, 1.040000081062317, 0.0, 0.0, 0.0, 0.0, 0.0, 1.6133511981442E9, 2021-02-14 20:06:38.144
4.0, 13.746002197265625, 14.123732566833496, 9.456336975097656, 13.439330101013184, 0.08000000566244125, 0.01600000075995922, 1.040000081062317, 0.0, 0.0, 0.0, 0.0, 0.0, 1.6133511981442E9, 2021-02-14 20:06:38.144
5.0, 9.9387845993042, 15.91888427734375, 5.731396675109863, 11.13181209564209, 0.08000000566244125, 0.01600000075995922, 1.040000081062317, 0.0, 0.0, 0.0, 0.0, 0.0, 1.613351198159957E9, 2021-02-14 20:06:38.159
5.0, 9.935044288635254, 19.7485408782959, 23.978368759155273, 26.49532127380371, 0.08000000566244125, 0.01600000075995922, 1.040000081062317, 0.0, 0.0, 0.0, 0.0, 0.0, 1.613351198159957E9, 2021-02-14 20:06:38.159
6.0, 18.551773071289062, 24.86472511291504, 27.5125732421875, 27.123624801635742, 0.08000000566244125, 0.01600000075995922, 1.040000081062317, 0.0, 0.0, 0.0, 0.0, 0.0, 1.613351198160674E9, 2021-02-14 20:06:38.160
6.0, 7.133859157562256, 11.576860427856445, 3.416398525238037, 2.4141054153442383, 0.08000000566244125, 0.01600000075995922, 1.040000081062317, 0.0, 0.0, 0.0, 0.0, 0.0, 1.613351198160674E9, 2021-02-14 20:06:38.160
7.0, 18.49193572998047, 24.191543579101562, 18.252582550048828, 25.16017723083496, 0.08000000566244125, 0.01600000075995922, 1.040000081062317, 0.0, 0.0, 0.0, 0.0, 0.0, 1.613351198190635E9, 2021-02-14 20:06:38.190
7.0, 20.87799072265625, 25.36587142944336, 30.65782928466797, 31.562885284423828, 0.08000000566244125, 0.01600000075995922, 1.040000081062317, 0.0, 0.0, 0.0, 0.0, 0.0, 1.613351198190635E9, 2021-02-14 20:06:38.190
8.0, 7.515328884124756, 10.61944580078125, 2.0999538898468018, 2.844193935394287, 0.08000000566244125, 0.01600000075995922, 1.040000081062317, 0.0, 0.0, 0.0, 0.0, 0.0, 1.613351198191392E9, 2021-02-14 20:06:38.191
8.0, 9.336660385131836, 20.223508834838867, 15.746849060058594, 15.040007591247559, 0.08000000566244125, 0.01600000075995922, 1.040000081062317, 0.0, 0.0, 0.0, 0.0, 0.0, 1.613351198191392E9, 2021-02-14 20:06:38.191
9.0, 21.248241424560547, 28.997314453125, 28.35405158996582, 31.4619083404541, 0.08000000566244125, 0.01600000075995922, 1.040000081062317, 0.0, 0.0, 0.0, 0.0, 0.0, 1.613351198192069E9, 2021-02-14 20:06:38.192
9.0, 17.11939239501953, 17.99078941345215, 12.504355430603027, 13.5477876663208, 0.08000000566244125, 0.01600000075995922, 1.040000081062317, 0.0, 0.0, 0.0, 0.0, 0.0, 1.613351198192069E9, 2021-02-14 20:06:38.192
10.0, 15.077406883239746, 17.852413177490234, 4.605686664581299, 11.872312545776367, 0.08000000566244125, 0.01600000075995922, 1.040000081062317, 0.0, 0.0, 0.0, 0.0, 0.0, 1.613351198204245E9, 2021-02-14 20:06:38.204
10.0, 21.689550399780273, 25.23871421813965, 20.141231536865234, 25.792219161987305, 0.08000000566244125, 0.01600000075995922, 1.040000081062317, 0.0, 0.0, 0.0, 0.0, 0.0, 1.613351198204245E9, 2021-02-14 20:06:38.204
11.0, 20.38432502746582, 28.90007781982422, 26.012874603271484, 29.40122413635254, 0.08000000566244125, 0.01600000075995922, 1.040000081062317, 0.0, 0.0, 0.0, 0.0, 0.0, 1.613351198220026E9, 2021-02-14 20:06:38.220
11.0, 7.126379489898682, 12.178984642028809, 1.1537591218948364, 6.909465312957764, 0.08000000566244125, 0.01600000075995922, 1.040000081062317, 0.0, 0.0, 0.0, 0.0, 0.0, 1.613351198220026E9, 2021-02-14 20:06:38.220
12.0, 16.86507797241211, 20.429203033447266, 18.189002990722656, 16.75288200378418, 0.08000000566244125, 0.01600000075995922, 1.040000081062317, 0.0, 0.0, 0.0, 0.0, 0.0, 1.613351198220683E9, 2021-02-14 20:06:38.220
12.0, 21.749387741088867, 33.791866302490234, 31.62646484375, 31.854597091674805, 0.08000000566244125, 0.01600000075995922, 1.040000081062317, 0.0, 0.0, 0.0, 0.0, 0.0, 1.613351198220683E9, 2021-02-14 20:06:38.220
13.0, 7.605086326599121, 7.133859157562256, 0.8209080696105957, 1.2098575830459595, 0.08000000566244125, 0.01600000075995922, 1.040000081062317, 0.0, 0.0, 0.0, 0.0, 0.0, 1.613351198234236E9, 2021-02-14 20:06:38.234
13.0, 18.0169677734375, 22.49736785888672, 20.11505126953125, 23.25282859802246, 0.08000000566244125, 0.01600000075995922, 1.040000081062317, 0.0, 0.0, 0.0, 0.0, 0.0, 1.613351198234236E9, 2021-02-14 20:06:38.234
14.0, 20.735876083374023, 27.142324447631836, 28.72804069519043, 27.056306838989258, 0.08000000566244125, 0.01600000075995922, 1.040000081062317, 0.0, 0.0, 0.0, 0.0, 0.0, 1.613351198249905E9, 2021-02-14 20:06:38.249
14.0, 12.867125511169434, 20.126272201538086, 15.926363945007324, 11.96207046508789, 0.08000000566244125, 0.01600000075995922, 1.040000081062317, 0.0, 0.0, 0.0, 0.0, 0.0, 1.613351198249905E9, 2021-02-14 20:06:38.249
15.0, 13.81332015991211, 18.020708084106445, 12.354759216308594, 9.16462516784668, 0.08000000566244125, 0.01600000075995922, 1.040000081062317, 0.0, 0.0, 0.0, 0.0, 0.0, 1.613351198250636E9, 2021-02-14 20:06:38.250
15.0, 17.49338150024414, 22.62452507019043, 16.831418991088867, 21.9663028717041, 0.08000000566244125, 0.01600000075995922, 1.040000081062317, 0.0, 0.0, 0.0, 0.0, 0.0, 1.613351198250636E9, 2021-02-14 20:06:38.250
16.0, 16.954835891723633, 28.21941566467285, 22.7292423248291, 25.979215621948242, 0.08000000566244125, 0.01600000075995922, 1.040000081062317, 0.0, 0.0, 0.0, 0.0, 0.0, 1.613351198264257E9, 2021-02-14 20:06:38.264
16.0, 8.95145034790039, 11.240269660949707, 4.4860100746154785, 3.984863519668579, 0.08000000566244125, 0.01600000075995922, 1.040000081062317, 0.0, 0.0, 0.0, 0.0, 0.0, 1.613351198264257E9, 2021-02-14 20:06:38.264
17.0, 16.636945724487305, 21.513774871826172, 18.2226619720459, 16.92117691040039, 0.08000000566244125, 0.01600000075995922, 1.040000081062317, 0.0, 0.0, 0.0, 0.0, 0.0, 1.613351198279894E9, 2021-02-14 20:06:38.279
17.0, 19.838298797607422, 27.32931900024414, 30.373598098754883, 31.129056930541992, 0.08000000566244125, 0.01600000075995922, 1.040000081062317, 0.0, 0.0, 0.0, 0.0, 0.0, 1.613351198279894E9, 2021-02-14 20:06:38.279
18.0, 12.272481918334961, 14.306986808776855, 6.647672176361084, 3.977383613586426, 0.08000000566244125, 0.01600000075995922, 1.040000081062317, 0.0, 0.0, 0.0, 0.0, 0.0, 1.613351198280653E9, 2021-02-14 20:06:38.280
18.0, 14.355606079101562, 22.572166442871094, 14.733335494995117, 16.82394027709961, 0.08000000566244125, 0.01600000075995922, 1.040000081062317, 0.0, 0.0, 0.0, 0.0, 0.0, 1.613351198280653E9, 2021-02-14 20:06:38.280
19.0, 19.561546325683594, 30.291318893432617, 26.241008758544922, 28.032419204711914, 0.08000000566244125, 0.01600000075995922, 1.040000081062317, 0.0, 0.0, 0.0, 0.0, 0.0, 1.613351198294294E9, 2021-02-14 20:06:38.294
19.0, 12.85964584350586, 17.987049102783203, 11.165471076965332, 12.074267387390137, 0.08000000566244125, 0.01600000075995922, 1.040000081062317, 0.0, 0.0, 0.0, 0.0, 0.0, 1.613351198294294E9, 2021-02-14 20:06:38.294
20.0, 11.651658058166504, 13.143877983093262, 8.465263366699219, 13.140138626098633, 0.08000000566244125, 0.01600000075995922, 1.040000081062317, 0.0, 0.0, 0.0, 0.0, 0.0, 1.613351198309954E9, 2021-02-14 20:06:38.309
20.0, 19.830820083618164, 24.62911033630371, 21.43523597717285, 26.644916534423828, 0.08000000566244125, 0.01600000075995922, 1.040000081062317, 0.0, 0.0, 0.0, 0.0, 0.0, 1.613351198309954E9, 2021-02-14 20:06:38.309
21.0, 21.061246871948242, 23.084531784057617, 25.335952758789062, 26.196128845214844, 0.08000000566244125, 0.01600000075995922, 1.040000081062317, 0.0, 0.0, 0.0, 0.0, 0.0, 1.613351198310704E9, 2021-02-14 20:06:38.310
21.0, 11.969550132751465, 10.208057403564453, -0.20382454991340637, 1.905479073524475, 0.08000000566244125, 0.01600000075995922, 1.040000081062317, 0.0, 0.0, 0.0, 0.0, 0.0, 1.613351198310704E9, 2021-02-14 20:06:38.310
22.0, 16.58832550048828, 20.06643295288086, 14.535120964050293, 17.358745574951172, 0.08000000566244125, 0.01600000075995922, 1.040000081062317, 0.0, 0.0, 0.0, 0.0, 0.0, 1.613351198324244E9, 2021-02-14 20:06:38.324
22.0, 13.746002197265625, 27.564931869506836, 29.064632415771484, 31.22255516052246, 0.08000000566244125, 0.01600000075995922, 1.040000081062317, 0.0, 0.0, 0.0, 0.0, 0.0, 1.613351198324244E9, 2021-02-14 20:06:38.324
23.0, 8.828033447265625, 8.513882637023926, 2.9900500774383545, 5.828634262084961, 0.08000000566244125, 0.01600000075995922, 1.040000081062317, 0.0, 0.0, 0.0, 0.0, 0.0, 1.613351198339693E9, 2021-02-14 20:06:38.339
23.0, 20.462862014770508, 19.520408630371094, 18.245101928710938, 27.01142692565918, 0.08000000566244125, 0.01600000075995922, 1.040000081062317, 0.0, 0.0, 0.0, 0.0, 0.0, 1.613351198339693E9, 2021-02-14 20:06:38.339
24.0, 18.27128028869629, 33.09624481201172, 28.67942237854004, 31.678823471069336, 0.08000000566244125, 0.01600000075995922, 1.040000081062317, 0.0, 0.0, 0.0, 0.0, 0.0, 1.613351198354924E9, 2021-02-14 20:06:38.354
24.0, 11.25148868560791, 15.724409103393555, 12.283700942993164, 13.727302551269531, 0.08000000566244125, 0.01600000075995922, 1.040000081062317, 0.0, 0.0, 0.0, 0.0, 0.0, 1.613351198354924E9, 2021-02-14 20:06:38.354
25.0, 9.878945350646973, 10.73912239074707, 6.25872278213501, 6.853366851806641, 0.08000000566244125, 0.01600000075995922, 1.040000081062317, 0.0, 0.0, 0.0, 0.0, 0.0, 1.613351198355698E9, 2021-02-14 20:06:38.355
25.0, 15.802947044372559, 23.623077392578125, 24.08682632446289, 23.106971740722656, 0.08000000566244125, 0.01600000075995922, 1.040000081062317, 0.0, 0.0, 0.0, 0.0, 0.0, 1.613351198355698E9, 2021-02-14 20:06:38.355
26.0, 19.236175537109375, 29.539600372314453, 24.846025466918945, 29.5956974029541, 0.08000000566244125, 0.01600000075995922, 1.040000081062317, 0.0, 0.0, 0.0, 0.0, 0.0, 1.613351198369932E9, 2021-02-14 20:06:38.369
26.0, 11.90597152709961, 9.467556953430176, 2.9115121364593506, 4.968457221984863, 0.08000000566244125, 0.01600000075995922, 1.040000081062317, 0.0, 0.0, 0.0, 0.0, 0.0, 1.613351198369932E9, 2021-02-14 20:06:38.369
27.0, 20.507741928100586, 24.681468963623047, 15.230742454528809, 20.8218936920166, 0.08000000566244125, 0.01600000075995922, 1.040000081062317, 0.0, 0.0, 0.0, 0.0, 0.0, 1.613351198370652E9, 2021-02-14 20:06:38.370
27.0, 17.512081146240234, 30.096845626831055, 29.73407554626465, 27.03386688232422, 0.08000000566244125, 0.01600000075995922, 1.040000081062317, 0.0, 0.0, 0.0, 0.0, 0.0, 1.613351198370652E9, 2021-02-14 20:06:38.370
28.0, 8.151111602783203, 9.78544807434082, 1.2584763765335083, -0.43569833040237427, 0.08000000566244125, 0.01600000075995922, 1.040000081062317, 0.0, 0.0, 0.0, 0.0, 0.0, 1.613351198400612E9, 2021-02-14 20:06:38.400
28.0, 16.109619140625, 21.027587890625, 18.439577102661133, 15.802947044372559, 0.08000000566244125, 0.01600000075995922, 1.040000081062317, 0.0, 0.0, 0.0, 0.0, 0.0, 1.613351198400612E9, 2021-02-14 20:06:38.400
29.0, 24.973182678222656, 30.885963439941406, 30.66530990600586, 30.437175750732422, 0.08000000566244125, 0.01600000075995922, 1.040000081062317, 0.0, 0.0, 0.0, 0.0, 0.0, 1.613351198401379E9, 2021-02-14 20:06:38.401
29.0, 11.341246604919434, 19.393251419067383, 13.61884593963623, 13.854459762573242, 0.08000000566244125, 0.01600000075995922, 1.040000081062317, 0.0, 0.0, 0.0, 0.0, 0.0, 1.613351198401379E9, 2021-02-14 20:06:38.401
30.0, 10.858799934387207, 13.985356330871582, 11.659137725830078, 13.746002197265625, 0.08000000566244125, 0.01600000075995922, 1.040000081062317, 0.0, 0.0, 0.0, 0.0, 0.0, 1.613351198402078E9, 2021-02-14 20:06:38.402
30.0, 12.448257446289062, 23.623077392578125, 23.69039535522461, 26.229787826538086, 0.08000000566244125, 0.01600000075995922, 1.040000081062317, 0.0, 0.0, 0.0, 0.0, 0.0, 1.613351198402078E9, 2021-02-14 20:06:38.402
31.0, 23.30144691467285, 30.081884384155273, 24.32617950439453, 30.710187911987305, 0.08000000566244125, 0.01600000075995922, 1.040000081062317, 0.0, 0.0, 0.0, 0.0, 0.0, 1.613351198414233E9, 2021-02-14 20:06:38.414
31.0, 7.369472980499268, 13.416891098022461, 2.5225625038146973, 6.427018165588379, 0.08000000566244125, 0.01600000075995922, 1.040000081062317, 0.0, 0.0, 0.0, 0.0, 0.0, 1.613351198414233E9, 2021-02-14 20:06:38.414
32.0, 16.50604820251465, 22.089719772338867, 20.148710250854492, 18.387218475341797, 0.08000000566244125, 0.01600000075995922, 1.040000081062317, 0.0, 0.0, 0.0, 0.0, 0.0, 1.613351198430068E9, 2021-02-14 20:06:38.430
32.0, 20.05147361755371, 30.818645477294922, 29.01227378845215, 30.194082260131836, 0.08000000566244125, 0.01600000075995922, 1.040000081062317, 0.0, 0.0, 0.0, 0.0, 0.0, 1.613351198430068E9, 2021-02-14 20:06:38.430
33.0, 7.074020862579346, 11.689057350158691, 3.147125720977783, 10.432451248168945, 0.08000000566244125, 0.01600000075995922, 1.040000081062317, 0.0, 0.0, 0.0, 0.0, 0.0, 1.613351198430712E9, 2021-02-14 20:06:38.430
33.0, 18.772428512573242, 18.050626754760742, 13.734782218933105, 14.624878883361816, 0.08000000566244125, 0.01600000075995922, 1.040000081062317, 0.0, 0.0, 0.0, 0.0, 0.0, 1.613351198430712E9, 2021-02-14 20:06:38.430
34.0, 21.311819076538086, 25.7697811126709, 24.20650291442871, 29.99960708618164, 0.08000000566244125, 0.01600000075995922, 1.040000081062317, 0.0, 0.0, 0.0, 0.0, 0.0, 1.613351198460576E9, 2021-02-14 20:06:38.460
34.0, 13.663724899291992, 12.769887924194336, 17.250288009643555, 17.91973114013672, 0.08000000566244125, 0.01600000075995922, 1.040000081062317, 0.0, 0.0, 0.0, 0.0, 0.0, 1.613351198460576E9, 2021-02-14 20:06:38.460
35.0, 12.575413703918457, 13.125179290771484, 8.644779205322266, 7.074020862579346, 0.08000000566244125, 0.01600000075995922, 1.040000081062317, 0.0, 0.0, 0.0, 0.0, 0.0, 1.613351198461384E9, 2021-02-14 20:06:38.461
35.0, 17.149311065673828, 22.57964515686035, 17.687856674194336, 23.79511260986328, 0.08000000566244125, 0.01600000075995922, 1.040000081062317, 0.0, 0.0, 0.0, 0.0, 0.0, 1.613351198461384E9, 2021-02-14 20:06:38.461
36.0, 19.44561004638672, 28.724302291870117, 27.587371826171875, 27.086225509643555, 0.08000000566244125, 0.01600000075995922, 1.040000081062317, 0.0, 0.0, 0.0, 0.0, 0.0, 1.613351198462088E9, 2021-02-14 20:06:38.462
36.0, 7.309634685516357, 9.078607559204102, 2.679638385772705, -0.046748749911785126, 0.08000000566244125, 0.01600000075995922, 1.040000081062317, 0.0, 0.0, 0.0, 0.0, 0.0, 1.613351198462088E9, 2021-02-14 20:06:38.462
37.0, 17.31760597229004, 24.65155029296875, 22.95737648010254, 22.867618560791016, 0.08000000566244125, 0.01600000075995922, 1.040000081062317, 0.0, 0.0, 0.0, 0.0, 0.0, 1.613351198474448E9, 2021-02-14 20:06:38.474
37.0, 20.204809188842773, 29.32268524169922, 32.82697296142578, 31.233774185180664, 0.08000000566244125, 0.01600000075995922, 1.040000081062317, 0.0, 0.0, 0.0, 0.0, 0.0, 1.613351198474448E9, 2021-02-14 20:06:38.474
38.0, 11.756375312805176, 6.853366851806641, -0.7161908149719238, 8.487703323364258, 0.08000000566244125, 0.01600000075995922, 1.040000081062317, 0.0, 0.0, 0.0, 0.0, 0.0, 1.613351198490189E9, 2021-02-14 20:06:38.490
38.0, 15.627171516418457, 26.55889892578125, 18.58917236328125, 15.638391494750977, 0.08000000566244125, 0.01600000075995922, 1.040000081062317, 0.0, 0.0, 0.0, 0.0, 0.0, 1.613351198490189E9, 2021-02-14 20:06:38.490
39.0, 18.241361618041992, 29.21048927307129, 27.25078010559082, 30.250181198120117, 0.08000000566244125, 0.01600000075995922, 1.040000081062317, 0.0, 0.0, 0.0, 0.0, 0.0, 1.613351198490723E9, 2021-02-14 20:06:38.490
39.0, 10.406271934509277, 16.93613624572754, 11.116852760314941, 11.460923194885254, 0.08000000566244125, 0.01600000075995922, 1.040000081062317, 0.0, 0.0, 0.0, 0.0, 0.0, 1.613351198490723E9, 2021-02-14 20:06:38.490
40.0, 12.373458862304688, 15.701970100402832, 9.568533897399902, 6.557914733886719, 0.08000000566244125, 0.01600000075995922, 1.040000081062317, 0.0, 0.0, 0.0, 0.0, 0.0, 1.61335119850428E9, 2021-02-14 20:06:38.504
40.0, 18.42087745666504, 24.12796401977539, 16.58458709716797, 19.389511108398438, 0.08000000566244125, 0.01600000075995922, 1.040000081062317, 0.0, 0.0, 0.0, 0.0, 0.0, 1.61335119850428E9, 2021-02-14 20:06:38.504
41.0, 14.669757843017578, 24.703908920288086, 27.968841552734375, 23.821292877197266, 0.08000000566244125, 0.01600000075995922, 1.040000081062317, 0.0, 0.0, 0.0, 0.0, 0.0, 1.613351198519987E9, 2021-02-14 20:06:38.519
41.0, 7.683624267578125, 11.891012191772461, 2.956390857696533, 4.508449554443359, 0.08000000566244125, 0.01600000075995922, 1.040000081062317, 0.0, 0.0, 0.0, 0.0, 0.0, 1.613351198519987E9, 2021-02-14 20:06:38.519
42.0, 17.11191177368164, 21.76808738708496, 20.369365692138672, 24.73008918762207, 0.08000000566244125, 0.01600000075995922, 1.040000081062317, 0.0, 0.0, 0.0, 0.0, 0.0, 1.613351198520656E9, 2021-02-14 20:06:38.520
42.0, 22.239315032958984, 31.274913787841797, 27.808025360107422, 31.592803955078125, 0.08000000566244125, 0.01600000075995922, 1.040000081062317, 0.0, 0.0, 0.0, 0.0, 0.0, 1.613351198520656E9, 2021-02-14 20:06:38.520
43.0, 8.794374465942383, 10.656845092773438, 5.144232273101807, 2.8030550479888916, 0.08000000566244125, 0.01600000075995922, 1.040000081062317, 0.0, 0.0, 0.0, 0.0, 0.0, 1.613351198534285E9, 2021-02-14 20:06:38.534
43.0, 14.007795333862305, 19.180076599121094, 15.219522476196289, 22.3889102935791, 0.08000000566244125, 0.01600000075995922, 1.040000081062317, 0.0, 0.0, 0.0, 0.0, 0.0, 1.613351198534285E9, 2021-02-14 20:06:38.534
44.0, 22.48988914489746, 28.70934295654297, 24.228940963745117, 32.355743408203125, 0.08000000566244125, 0.01600000075995922, 1.040000081062317, 0.0, 0.0, 0.0, 0.0, 0.0, 1.613351198549913E9, 2021-02-14 20:06:38.549
44.0, 12.930704116821289, 13.128918647766113, 5.679038047790527, 13.04664134979248, 0.08000000566244125, 0.01600000075995922, 1.040000081062317, 0.0, 0.0, 0.0, 0.0, 0.0, 1.613351198549913E9, 2021-02-14 20:06:38.549
45.0, 13.001762390136719, 11.887271881103516, 10.230496406555176, 13.147618293762207, 0.08000000566244125, 0.01600000075995922, 1.040000081062317, 0.0, 0.0, 0.0, 0.0, 0.0, 1.613351198550658E9, 2021-02-14 20:06:38.550
45.0, 16.700523376464844, 24.378538131713867, 20.33570671081543, 18.936983108520508, 0.08000000566244125, 0.01600000075995922, 1.040000081062317, 0.0, 0.0, 0.0, 0.0, 0.0, 1.613351198550658E9, 2021-02-14 20:06:38.550
46.0, 19.864479064941406, 32.452980041503906, 26.798254013061523, 31.147756576538086, 0.08000000566244125, 0.01600000075995922, 1.040000081062317, 0.0, 0.0, 0.0, 0.0, 0.0, 1.613351198564396E9, 2021-02-14 20:06:38.564
46.0, 15.705709457397461, 8.929011344909668, 6.561654567718506, 6.067987442016602, 0.08000000566244125, 0.01600000075995922, 1.040000081062317, 0.0, 0.0, 0.0, 0.0, 0.0, 1.613351198564396E9, 2021-02-14 20:06:38.564
47.0, 18.42087745666504, 23.60437774658203, 20.492782592773438, 17.029634475708008, 0.08000000566244125, 0.01600000075995922, 1.040000081062317, 0.0, 0.0, 0.0, 0.0, 0.0, 1.613351198580126E9, 2021-02-14 20:06:38.580
47.0, 24.012027740478516, 33.739505767822266, 31.97801399230957, 39.19976043701172, 0.08000000566244125, 0.01600000075995922, 1.040000081062317, 0.0, 0.0, 0.0, 0.0, 0.0, 1.613351198580126E9, 2021-02-14 20:06:38.580
48.0, 11.83491325378418, 13.517868041992188, 3.1284263134002686, 5.488303184509277, 0.08000000566244125, 0.01600000075995922, 1.040000081062317, 0.0, 0.0, 0.0, 0.0, 0.0, 1.613351198580691E9, 2021-02-14 20:06:38.580
48.0, 15.182124137878418, 19.913097381591797, 9.172104835510254, 17.781354904174805, 0.08000000566244125, 0.01600000075995922, 1.040000081062317, 0.0, 0.0, 0.0, 0.0, 0.0, 1.613351198580691E9, 2021-02-14 20:06:38.580
49.0, 18.102985382080078, 26.596298217773438, 30.422216415405273, 29.416183471679688, 0.08000000566244125, 0.01600000075995922, 1.040000081062317, 0.0, 0.0, 0.0, 0.0, 0.0, 1.613351198594243E9, 2021-02-14 20:06:38.594
49.0, 9.041208267211914, 11.603039741516113, 16.23677635192871, 15.485055923461914, 0.08000000566244125, 0.01600000075995922, 1.040000081062317, 0.0, 0.0, 0.0, 0.0, 0.0, 1.613351198594243E9, 2021-02-14 20:06:38.594
50.0, 15.544894218444824, 15.268141746520996, 12.313620567321777, 8.599900245666504, 0.08000000566244125, 0.01600000075995922, 1.040000081062317, 0.0, 0.0, 0.0, 0.0, 0.0, 1.613351198609889E9, 2021-02-14 20:06:38.609
50.0, 15.615952491760254, 32.44550323486328, 25.605224609375, 23.159330368041992, 0.08000000566244125, 0.01600000075995922, 1.040000081062317, 0.0, 0.0, 0.0, 0.0, 0.0, 1.613351198609889E9, 2021-02-14 20:06:38.609
51.0, 18.697629928588867, 29.921070098876953, 25.12651824951172, 27.826725006103516, 0.08000000566244125, 0.01600000075995922, 1.040000081062317, 0.0, 0.0, 0.0, 0.0, 0.0, 1.613351198610655E9, 2021-02-14 20:06:38.610
51.0, 8.861693382263184, 10.114559173583984, 5.450904369354248, 1.086440920829773, 0.08000000566244125, 0.01600000075995922, 1.040000081062317, 0.0, 0.0, 0.0, 0.0, 0.0, 1.613351198610655E9, 2021-02-14 20:06:38.610
52.0, 15.178383827209473, 22.022401809692383, 17.474681854248047, 19.09031867980957, 0.08000000566244125, 0.01600000075995922, 1.040000081062317, 0.0, 0.0, 0.0, 0.0, 0.0, 1.613351198624246E9, 2021-02-14 20:06:38.624
52.0, 23.009735107421875, 33.365516662597656, 22.534767150878906, 33.5038948059082, 0.08000000566244125, 0.01600000075995922, 1.040000081062317, 0.0, 0.0, 0.0, 0.0, 0.0, 1.613351198624246E9, 2021-02-14 20:06:38.624
53.0, 9.613412857055664, 9.979923248291016, 4.388772487640381, 4.519669055938721, 0.08000000566244125, 0.01600000075995922, 1.040000081062317, 0.0, 0.0, 0.0, 0.0, 0.0, 1.613351198639926E9, 2021-02-14 20:06:38.639
53.0, 18.690149307250977, 21.364177703857422, 18.424617767333984, 18.2226619720459, 0.08000000566244125, 0.01600000075995922, 1.040000081062317, 0.0, 0.0, 0.0, 0.0, 0.0, 1.613351198639926E9, 2021-02-14 20:06:38.639
54.0, 21.91768455505371, 28.200716018676758, 28.196975708007812, 24.812366485595703, 0.08000000566244125, 0.01600000075995922, 1.040000081062317, 0.0, 0.0, 0.0, 0.0, 0.0, 1.613351198640629E9, 2021-02-14 20:06:38.640
54.0, 13.573966979980469, 12.126626014709473, 13.229896545410156, 12.104186058044434, 0.08000000566244125, 0.01600000075995922, 1.040000081062317, 0.0, 0.0, 0.0, 0.0, 0.0, 1.613351198640629E9, 2021-02-14 20:06:38.640
55.0, 8.095013618469238, 12.702569961547852, 7.216136932373047, 7.904278755187988, 0.08000000566244125, 0.01600000075995922, 1.040000081062317, 0.0, 0.0, 0.0, 0.0, 0.0, 1.613351198654182E9, 2021-02-14 20:06:38.654
55.0, 16.898738861083984, 24.08682632446289, 17.639238357543945, 19.221216201782227, 0.08000000566244125, 0.01600000075995922, 1.040000081062317, 0.0, 0.0, 0.0, 0.0, 0.0, 1.613351198654182E9, 2021-02-14 20:06:38.654
56.0, 16.693042755126953, 29.341384887695312, 27.20216178894043, 29.756513595581055, 0.08000000566244125, 0.01600000075995922, 1.040000081062317, 0.0, 0.0, 0.0, 0.0, 0.0, 1.613351198669912E9, 2021-02-14 20:06:38.669
56.0, 11.008395195007324, 10.914897918701172, 5.1105732917785645, 4.082100868225098, 0.08000000566244125, 0.01600000075995922, 1.040000081062317, 0.0, 0.0, 0.0, 0.0, 0.0, 1.613351198669912E9, 2021-02-14 20:06:38.669
57.0, 16.296613693237305, 24.692689895629883, 19.023000717163086, 18.9556827545166, 0.08000000566244125, 0.01600000075995922, 1.040000081062317, 0.0, 0.0, 0.0, 0.0, 0.0, 1.613351198670624E9, 2021-02-14 20:06:38.670
57.0, 20.350666046142578, 33.29071807861328, 29.75277328491211, 34.82407760620117, 0.08000000566244125, 0.01600000075995922, 1.040000081062317, 0.0, 0.0, 0.0, 0.0, 0.0, 1.613351198670624E9, 2021-02-14 20:06:38.670
58.0, 7.115159511566162, 13.338353157043457, 3.7567296028137207, 3.678191661834717, 0.08000000566244125, 0.01600000075995922, 1.040000081062317, 0.0, 0.0, 0.0, 0.0, 0.0, 1.613351198684274E9, 2021-02-14 20:06:38.684
58.0, 13.775921821594238, 19.976675033569336, 16.603286743164062, 12.590373039245605, 0.08000000566244125, 0.01600000075995922, 1.040000081062317, 0.0, 0.0, 0.0, 0.0, 0.0, 1.613351198684274E9, 2021-02-14 20:06:38.684
59.0, 18.076807022094727, 29.057151794433594, 24.70016860961914, 23.798852920532227, 0.08000000566244125, 0.01600000075995922, 1.040000081062317, 0.0, 0.0, 0.0, 0.0, 0.0, 1.613351198699936E9, 2021-02-14 20:06:38.699
59.0, 13.835760116577148, 17.519561767578125, 15.761808395385742, 20.810672760009766, 0.08000000566244125, 0.01600000075995922, 1.040000081062317, 0.0, 0.0, 0.0, 0.0, 0.0, 1.613351198699936E9, 2021-02-14 20:06:38.699
60.0, 14.748295783996582, 12.033127784729004, 6.049288272857666, 13.29721450805664, 0.08000000566244125, 0.01600000075995922, 1.040000081062317, 0.0, 0.0, 0.0, 0.0, 0.0, 1.613351198700631E9, 2021-02-14 20:06:38.700
60.0, 16.68930435180664, 24.808626174926758, 18.884624481201172, 17.100692749023438, 0.08000000566244125, 0.01600000075995922, 1.040000081062317, 0.0, 0.0, 0.0, 0.0, 0.0, 1.613351198700631E9, 2021-02-14 20:06:38.700
61.0, 17.998268127441406, 27.968841552734375, 25.504247665405273, 28.97487449645996, 0.08000000566244125, 0.01600000075995922, 1.040000081062317, 0.0, 0.0, 0.0, 0.0, 0.0, 1.613351198714217E9, 2021-02-14 20:06:38.714
61.0, 7.758422374725342, 10.252935409545898, 2.8404541015625, -0.3384609520435333, 0.08000000566244125, 0.01600000075995922, 1.040000081062317, 0.0, 0.0, 0.0, 0.0, 0.0, 1.613351198714217E9, 2021-02-14 20:06:38.714
62.0, 16.87255859375, 24.58797264099121, 21.08368682861328, 23.780153274536133, 0.08000000566244125, 0.01600000075995922, 1.040000081062317, 0.0, 0.0, 0.0, 0.0, 0.0, 1.61335119872989E9, 2021-02-14 20:06:38.729
62.0, 18.9444637298584, 30.074405670166016, 30.799945831298828, 35.58327865600586, 0.08000000566244125, 0.01600000075995922, 1.040000081062317, 0.0, 0.0, 0.0, 0.0, 0.0, 1.61335119872989E9, 2021-02-14 20:06:38.729
63.0, 12.040607452392578, 9.635851860046387, 4.2690958976745605, 1.4492112398147583, 0.08000000566244125, 0.01600000075995922, 1.040000081062317, 0.0, 0.0, 0.0, 0.0, 0.0, 1.613351198730677E9, 2021-02-14 20:06:38.730
63.0, 12.0219087600708, 22.54598617553711, 15.331719398498535, 13.35705280303955, 0.08000000566244125, 0.01600000075995922, 1.040000081062317, 0.0, 0.0, 0.0, 0.0, 0.0, 1.613351198730677E9, 2021-02-14 20:06:38.730
64.0, 18.933242797851562, 31.65264320373535, 29.40496253967285, 33.49267578125, 0.08000000566244125, 0.01600000075995922, 1.040000081062317, 0.0, 0.0, 0.0, 0.0, 0.0, 1.613351198744539E9, 2021-02-14 20:06:38.744
64.0, 13.577706336975098, 18.56673240661621, 12.541754722595215, 14.70341682434082, 0.08000000566244125, 0.01600000075995922, 1.040000081062317, 0.0, 0.0, 0.0, 0.0, 0.0, 1.613351198744539E9, 2021-02-14 20:06:38.744
65.0, 15.96750259399414, 16.46864891052246, 13.069080352783203, 10.914897918701172, 0.08000000566244125, 0.01600000075995922, 1.040000081062317, 0.0, 0.0, 0.0, 0.0, 0.0, 1.613351198759979E9, 2021-02-14 20:06:38.759
65.0, 13.472990036010742, 22.14955711364746, 18.5629940032959, 21.65589141845703, 0.08000000566244125, 0.01600000075995922, 1.040000081062317, 0.0, 0.0, 0.0, 0.0, 0.0, 1.613351198759979E9, 2021-02-14 20:06:38.759
66.0, 19.59894561767578, 26.315805435180664, 24.89090347290039, 28.825279235839844, 0.08000000566244125, 0.01600000075995922, 1.040000081062317, 0.0, 0.0, 0.0, 0.0, 0.0, 1.613351198760712E9, 2021-02-14 20:06:38.760
66.0, 8.087533950805664, 11.6404390335083, 0.6974913477897644, 7.074020862579346, 0.08000000566244125, 0.01600000075995922, 1.040000081062317, 0.0, 0.0, 0.0, 0.0, 0.0, 1.613351198760712E9, 2021-02-14 20:06:38.760
67.0, 15.324239730834961, 24.59545135498047, 16.58832550048828, 18.68267059326172, 0.08000000566244125, 0.01600000075995922, 1.040000081062317, 0.0, 0.0, 0.0, 0.0, 0.0, 1.613351198774336E9, 2021-02-14 20:06:38.774
67.0, 22.54598617553711, 31.076698303222656, 27.77436637878418, 37.52428436279297, 0.08000000566244125, 0.01600000075995922, 1.040000081062317, 0.0, 0.0, 0.0, 0.0, 0.0, 1.613351198774336E9, 2021-02-14 20:06:38.774
68.0, 11.872312545776367, 6.000669479370117, 2.645979166030884, 0.6301731467247009, 0.08000000566244125, 0.01600000075995922, 1.040000081062317, 0.0, 0.0, 0.0, 0.0, 0.0, 1.613351198789908E9, 2021-02-14 20:06:38.789
68.0, 13.73852252960205, 23.552019119262695, 16.947357177734375, 14.531381607055664, 0.08000000566244125, 0.01600000075995922, 1.040000081062317, 0.0, 0.0, 0.0, 0.0, 0.0, 1.613351198789908E9, 2021-02-14 20:06:38.789
69.0, 15.750588417053223, 26.345726013183594, 28.660722732543945, 28.245594024658203, 0.08000000566244125, 0.01600000075995922, 1.040000081062317, 0.0, 0.0, 0.0, 0.0, 0.0, 1.613351198790621E9, 2021-02-14 20:06:38.790
69.0, 11.434743881225586, 18.656490325927734, 16.098400115966797, 18.92202377319336, 0.08000000566244125, 0.01600000075995922, 1.040000081062317, 0.0, 0.0, 0.0, 0.0, 0.0, 1.613351198790621E9, 2021-02-14 20:06:38.790
70.0, 14.860492706298828, 14.037714958190918, 5.185371398925781, 12.41833782196045, 0.08000000566244125, 0.01600000075995922, 1.040000081062317, 0.0, 0.0, 0.0, 0.0, 0.0, 1.613351198804243E9, 2021-02-14 20:06:38.804
70.0, 14.819353103637695, 26.117591857910156, 21.637191772460938, 12.680130958557129, 0.08000000566244125, 0.01600000075995922, 1.040000081062317, 0.0, 0.0, 0.0, 0.0, 0.0, 1.613351198804243E9, 2021-02-14 20:06:38.804
71.0, 22.14955711364746, 31.8433780670166, 27.553712844848633, 24.696430206298828, 0.08000000566244125, 0.01600000075995922, 1.040000081062317, 0.0, 0.0, 0.0, 0.0, 0.0, 1.613351198819604E9, 2021-02-14 20:06:38.819
71.0, 7.930458068847656, 8.607379913330078, 3.1583454608917236, 4.886179447174072, 0.08000000566244125, 0.01600000075995922, 1.040000081062317, 0.0, 0.0, 0.0, 0.0, 0.0, 1.613351198819604E9, 2021-02-14 20:06:38.819
72.0, 15.376598358154297, 22.635744094848633, 17.31012725830078, 23.63429832458496, 0.08000000566244125, 0.01600000075995922, 1.040000081062317, 0.0, 0.0, 0.0, 0.0, 0.0, 1.613351198834901E9, 2021-02-14 20:06:38.834
72.0, 22.50484848022461, 31.76110076904297, 32.845672607421875, 30.1417236328125, 0.08000000566244125, 0.01600000075995922, 1.040000081062317, 0.0, 0.0, 0.0, 0.0, 0.0, 1.613351198834901E9, 2021-02-14 20:06:38.834
73.0, 9.830327033996582, 6.412058353424072, 1.3669334650039673, 7.735982894897461, 0.08000000566244125, 0.01600000075995922, 1.040000081062317, 0.0, 0.0, 0.0, 0.0, 0.0, 1.613351198835665E9, 2021-02-14 20:06:38.835
73.0, 12.09670639038086, 16.479869842529297, 11.625478744506836, 12.803547859191895, 0.08000000566244125, 0.01600000075995922, 1.040000081062317, 0.0, 0.0, 0.0, 0.0, 0.0, 1.613351198835665E9, 2021-02-14 20:06:38.835
74.0, 17.886072158813477, 29.352603912353516, 26.289627075195312, 27.389158248901367, 0.08000000566244125, 0.01600000075995922, 1.040000081062317, 0.0, 0.0, 0.0, 0.0, 0.0, 1.613351198849941E9, 2021-02-14 20:06:38.849
74.0, 14.45284366607666, 13.783401489257812, 14.161130905151367, 18.28624153137207, 0.08000000566244125, 0.01600000075995922, 1.040000081062317, 0.0, 0.0, 0.0, 0.0, 0.0, 1.613351198849941E9, 2021-02-14 20:06:38.849
75.0, 12.455737113952637, 10.970996856689453, 9.73682975769043, 14.407964706420898, 0.08000000566244125, 0.01600000075995922, 1.040000081062317, 0.0, 0.0, 0.0, 0.0, 0.0, 1.613351198850683E9, 2021-02-14 20:06:38.850
75.0, 19.35959243774414, 23.4921817779541, 23.095752716064453, 24.4608154296875, 0.08000000566244125, 0.01600000075995922, 1.040000081062317, 0.0, 0.0, 0.0, 0.0, 0.0, 1.613351198850683E9, 2021-02-14 20:06:38.850
76.0, 20.582538604736328, 28.836498260498047, 27.16102409362793, 33.657230377197266, 0.08000000566244125, 0.01600000075995922, 1.040000081062317, 0.0, 0.0, 0.0, 0.0, 0.0, 1.613351198864218E9, 2021-02-14 20:06:38.864
76.0, 7.2834553718566895, 12.029388427734375, 2.3654866218566895, 2.7544362545013428, 0.08000000566244125, 0.01600000075995922, 1.040000081062317, 0.0, 0.0, 0.0, 0.0, 0.0, 1.613351198864218E9, 2021-02-14 20:06:38.864
77.0, 14.972689628601074, 25.68376350402832, 15.780508041381836, 18.428356170654297, 0.08000000566244125, 0.01600000075995922, 1.040000081062317, 0.0, 0.0, 0.0, 0.0, 0.0, 1.613351198880587E9, 2021-02-14 20:06:38.880
77.0, 20.560100555419922, 33.5338134765625, 30.029525756835938, 29.992128372192383, 0.08000000566244125, 0.01600000075995922, 1.040000081062317, 0.0, 0.0, 0.0, 0.0, 0.0, 1.613351198880587E9, 2021-02-14 20:06:38.880
78.0, 12.3360595703125, 9.953743934631348, 5.020815849304199, 4.026002407073975, 0.08000000566244125, 0.01600000075995922, 1.040000081062317, 0.0, 0.0, 0.0, 0.0, 0.0, 1.613351198894889E9, 2021-02-14 20:06:38.894
78.0, 16.09465980529785, 23.047134399414062, 16.85011863708496, 20.36188507080078, 0.08000000566244125, 0.01600000075995922, 1.040000081062317, 0.0, 0.0, 0.0, 0.0, 0.0, 1.613351198894889E9, 2021-02-14 20:06:38.894
79.0, 23.36502456665039, 29.135690689086914, 27.71078872680664, 29.341384887695312, 0.08000000566244125, 0.01600000075995922, 1.040000081062317, 0.0, 0.0, 0.0, 0.0, 0.0, 1.613351198895664E9, 2021-02-14 20:06:38.895
79.0, 15.058707237243652, 17.949649810791016, 11.44970417022705, 15.993681907653809, 0.08000000566244125, 0.01600000075995922, 1.040000081062317, 0.0, 0.0, 0.0, 0.0, 0.0, 1.613351198895664E9, 2021-02-14 20:06:38.895
80.0, 9.389019012451172, 7.870619297027588, 9.878945350646973, 11.038314819335938, 0.08000000566244125, 0.01600000075995922, 1.040000081062317, 0.0, 0.0, 0.0, 0.0, 0.0, 1.613351198909966E9, 2021-02-14 20:06:38.909
80.0, 16.68182373046875, 22.56842613220215, 19.20999526977539, 24.29252052307129, 0.08000000566244125, 0.01600000075995922, 1.040000081062317, 0.0, 0.0, 0.0, 0.0, 0.0, 1.613351198909966E9, 2021-02-14 20:06:38.909
81.0, 20.926610946655273, 31.043039321899414, 24.32617950439453, 28.85519790649414, 0.08000000566244125, 0.01600000075995922, 1.040000081062317, 0.0, 0.0, 0.0, 0.0, 0.0, 1.613351198910741E9, 2021-02-14 20:06:38.910
81.0, 9.512435913085938, 10.866279602050781, 3.3154213428497314, 9.632112503051758, 0.08000000566244125, 0.01600000075995922, 1.040000081062317, 0.0, 0.0, 0.0, 0.0, 0.0, 1.613351198910741E9, 2021-02-14 20:06:38.910
82.0, 11.199130058288574, 16.86507797241211, 17.025894165039062, 18.458276748657227, 0.08000000566244125, 0.01600000075995922, 1.040000081062317, 0.0, 0.0, 0.0, 0.0, 0.0, 1.613351198924202E9, 2021-02-14 20:06:38.924
82.0, 19.6774845123291, 26.409303665161133, 28.563486099243164, 29.797653198242188, 0.08000000566244125, 0.01600000075995922, 1.040000081062317, 0.0, 0.0, 0.0, 0.0, 0.0, 1.613351198924202E9, 2021-02-14 20:06:38.924
83.0, 10.675544738769531, 14.946510314941406, 3.8801462650299072, 9.179584503173828, 0.08000000566244125, 0.01600000075995922, 1.040000081062317, 0.0, 0.0, 0.0, 0.0, 0.0, 1.613351198939886E9, 2021-02-14 20:06:38.939
83.0, 15.672050476074219, 19.228694915771484, 14.830573081970215, 23.050872802734375, 0.08000000566244125, 0.01600000075995922, 1.040000081062317, 0.0, 0.0, 0.0, 0.0, 0.0, 1.613351198939886E9, 2021-02-14 20:06:38.939
84.0, 21.771827697753906, 27.340538024902344, 30.160423278808594, 29.030973434448242, 0.08000000566244125, 0.01600000075995922, 1.040000081062317, 0.0, 0.0, 0.0, 0.0, 0.0, 1.613351198940639E9, 2021-02-14 20:06:38.940
84.0, 15.709449768066406, 16.580846786499023, 15.032527923583984, 14.39300537109375, 0.08000000566244125, 0.01600000075995922, 1.040000081062317, 0.0, 0.0, 0.0, 0.0, 0.0, 1.613351198940639E9, 2021-02-14 20:06:38.940
85.0, 11.726456642150879, 10.24919605255127, 4.770242214202881, 4.807641506195068, 0.08000000566244125, 0.01600000075995922, 1.040000081062317, 0.0, 0.0, 0.0, 0.0, 0.0, 1.613351198954201E9, 2021-02-14 20:06:38.954
85.0, 19.28853416442871, 20.4404239654541, 18.99308204650879, 21.05002784729004, 0.08000000566244125, 0.01600000075995922, 1.040000081062317, 0.0, 0.0, 0.0, 0.0, 0.0, 1.613351198954201E9, 2021-02-14 20:06:38.954
86.0, 16.438730239868164, 28.10721778869629, 27.228342056274414, 22.553466796875, 0.08000000566244125, 0.01600000075995922, 1.040000081062317, 0.0, 0.0, 0.0, 0.0, 0.0, 1.613351198969869E9, 2021-02-14 20:06:38.969
86.0, 9.460077285766602, 10.92985725402832, 8.109972953796387, 3.7829089164733887, 0.08000000566244125, 0.01600000075995922, 1.040000081062317, 0.0, 0.0, 0.0, 0.0, 0.0, 1.613351198969869E9, 2021-02-14 20:06:38.969
87.0, 17.938430786132812, 20.365625381469727, 15.331719398498535, 20.272127151489258, 0.08000000566244125, 0.01600000075995922, 1.040000081062317, 0.0, 0.0, 0.0, 0.0, 0.0, 1.613351198970613E9, 2021-02-14 20:06:38.970
87.0, 20.50400161743164, 29.741554260253906, 23.41364288330078, 30.489534378051758, 0.08000000566244125, 0.01600000075995922, 1.040000081062317, 0.0, 0.0, 0.0, 0.0, 0.0, 1.613351198970613E9, 2021-02-14 20:06:38.970
88.0, 6.726210117340088, 8.84299373626709, 5.495782852172852, 5.869772911071777, 0.08000000566244125, 0.01600000075995922, 1.040000081062317, 0.0, 0.0, 0.0, 0.0, 0.0, 1.613351198984257E9, 2021-02-14 20:06:38.984
88.0, 18.53307342529297, 25.291072845458984, 15.488795280456543, 17.69907569885254, 0.08000000566244125, 0.01600000075995922, 1.040000081062317, 0.0, 0.0, 0.0, 0.0, 0.0, 1.613351198984257E9, 2021-02-14 20:06:38.984
89.0, 20.50400161743164, 29.326425552368164, 22.94241714477539, 29.337644577026367, 0.08000000566244125, 0.01600000075995922, 1.040000081062317, 0.0, 0.0, 0.0, 0.0, 0.0, 1.613351199032041E9, 2021-02-14 20:06:39.032
89.0, 13.932997703552246, 18.9856014251709, 17.80379295349121, 20.20854949951172, 0.08000000566244125, 0.01600000075995922, 1.040000081062317, 0.0, 0.0, 0.0, 0.0, 0.0, 1.613351199032041E9, 2021-02-14 20:06:39.032
90.0, 13.708602905273438, 16.621984481811523, 4.9198384284973145, 16.184417724609375, 0.08000000566244125, 0.01600000075995922, 1.040000081062317, 0.0, 0.0, 0.0, 0.0, 0.0, 1.613351199032726E9, 2021-02-14 20:06:39.032
90.0, 15.043747901916504, 28.37649154663086, 24.453336715698242, 21.375398635864258, 0.08000000566244125, 0.01600000075995922, 1.040000081062317, 0.0, 0.0, 0.0, 0.0, 0.0, 1.613351199032726E9, 2021-02-14 20:06:39.032
91.0, 24.6365909576416, 31.252473831176758, 29.603178024291992, 32.265987396240234, 0.08000000566244125, 0.01600000075995922, 1.040000081062317, 0.0, 0.0, 0.0, 0.0, 0.0, 1.613351199033484E9, 2021-02-14 20:06:39.033
91.0, 11.670357704162598, 12.279961585998535, 2.485163450241089, -0.869526743888855, 0.08000000566244125, 0.01600000075995922, 1.040000081062317, 0.0, 0.0, 0.0, 0.0, 0.0, 1.613351199033484E9, 2021-02-14 20:06:39.033
92.0, 18.237621307373047, 21.106124877929688, 18.37225914001465, 17.153051376342773, 0.08000000566244125, 0.01600000075995922, 1.040000081062317, 0.0, 0.0, 0.0, 0.0, 0.0, 1.613351199034234E9, 2021-02-14 20:06:39.034
92.0, 15.256921768188477, 29.715375900268555, 24.449596405029297, 29.509679794311523, 0.08000000566244125, 0.01600000075995922, 1.040000081062317, 0.0, 0.0, 0.0, 0.0, 0.0, 1.613351199034234E9, 2021-02-14 20:06:39.034
93.0, 6.89076566696167, 10.331473350524902, 8.4540433883667, 6.614013195037842, 0.08000000566244125, 0.01600000075995922, 1.040000081062317, 0.0, 0.0, 0.0, 0.0, 0.0, 1.61335119904491E9, 2021-02-14 20:06:39.044
93.0, 9.587233543395996, 24.281299591064453, 12.545494079589844, 15.877745628356934, 0.08000000566244125, 0.01600000075995922, 1.040000081062317, 0.0, 0.0, 0.0, 0.0, 0.0, 1.61335119904491E9, 2021-02-14 20:06:39.044
94.0, 19.13519859313965, 25.35839080810547, 20.70969581604004, 32.95038986206055, 0.08000000566244125, 0.01600000075995922, 1.040000081062317, 0.0, 0.0, 0.0, 0.0, 0.0, 1.613351199045676E9, 2021-02-14 20:06:39.045
94.0, 16.34897232055664, 19.04918098449707, 15.941323280334473, 16.04604148864746, 0.08000000566244125, 0.01600000075995922, 1.040000081062317, 0.0, 0.0, 0.0, 0.0, 0.0, 1.613351199045676E9, 2021-02-14 20:06:39.045
95.0, 12.253782272338867, 14.426664352416992, 6.389618873596191, 12.552973747253418, 0.08000000566244125, 0.01600000075995922, 1.040000081062317, 0.0, 0.0, 0.0, 0.0, 0.0, 1.613351199060328E9, 2021-02-14 20:06:39.060
95.0, 18.390958786010742, 23.581939697265625, 21.00514793395996, 22.067279815673828, 0.08000000566244125, 0.01600000075995922, 1.040000081062317, 0.0, 0.0, 0.0, 0.0, 0.0, 1.613351199060328E9, 2021-02-14 20:06:39.060
96.0, 18.536813735961914, 28.432588577270508, 26.03531265258789, 21.308080673217773, 0.08000000566244125, 0.01600000075995922, 1.040000081062317, 0.0, 0.0, 0.0, 0.0, 0.0, 1.613351199074876E9, 2021-02-14 20:06:39.074
96.0, 7.2049174308776855, 2.619799852371216, 3.54355525970459, 3.850227117538452, 0.08000000566244125, 0.01600000075995922, 1.040000081062317, 0.0, 0.0, 0.0, 0.0, 0.0, 1.613351199074876E9, 2021-02-14 20:06:39.074
97.0, 16.001161575317383, 18.7799072265625, 23.798852920532227, 23.48470115661621, 0.08000000566244125, 0.01600000075995922, 1.040000081062317, 0.0, 0.0, 0.0, 0.0, 0.0, 1.613351199075627E9, 2021-02-14 20:06:39.075
97.0, 23.1107120513916, 32.258506774902344, 32.20240783691406, 30.250181198120117, 0.08000000566244125, 0.01600000075995922, 1.040000081062317, 0.0, 0.0, 0.0, 0.0, 0.0, 1.613351199075627E9, 2021-02-14 20:06:39.075
98.0, 7.6387457847595215, 15.567333221435547, 6.240023136138916, 7.051581382751465, 0.08000000566244125, 0.01600000075995922, 1.040000081062317, 0.0, 0.0, 0.0, 0.0, 0.0, 1.613351199089936E9, 2021-02-14 20:06:39.089
98.0, 15.043747901916504, 19.59894561767578, 13.147618293762207, 19.864479064941406, 0.08000000566244125, 0.01600000075995922, 1.040000081062317, 0.0, 0.0, 0.0, 0.0, 0.0, 1.613351199089936E9, 2021-02-14 20:06:39.089
99.0, 21.820446014404297, 30.253921508789062, 24.55431365966797, 28.511127471923828, 0.08000000566244125, 0.01600000075995922, 1.040000081062317, 0.0, 0.0, 0.0, 0.0, 0.0, 1.613351199090669E9, 2021-02-14 20:06:39.090
99.0, 16.057260513305664, 15.533674240112305, 17.934690475463867, 15.099845886230469, 0.08000000566244125, 0.01600000075995922, 1.040000081062317, 0.0, 0.0, 0.0, 0.0, 0.0, 1.613351199090669E9, 2021-02-14 20:06:39.090
100.0, 8.0725736618042, 10.82140064239502, 5.443424224853516, 8.095013618469238, 0.08000000566244125, 0.01600000075995922, 1.040000081062317, 0.0, 0.0, 0.0, 0.0, 0.0, 1.613351199104876E9, 2021-02-14 20:06:39.104
100.0, 17.100692749023438, 24.520654678344727, 20.55261993408203, 24.266340255737305, 0.08000000566244125, 0.01600000075995922, 1.040000081062317, 0.0, 0.0, 0.0, 0.0, 0.0, 1.613351199104876E9, 2021-02-14 20:06:39.104
0.0, 18.940723419189453, 29.670495986938477, 31.091657638549805, 30.203432083129883, 0.08000000566244125, 0.01600000075995922, 1.040000081062317, 0.0, 0.0, 0.0, 0.0, 0.0, 1.613351199105663E9, 2021-02-14 20:06:39.105
1.0, 9.254382133483887, 7.904278755187988, 0.7423701286315918, 4.529018878936768, 0.08000000566244125, 0.01600000075995922, 1.040000081062317, 0.0, 0.0, 0.0, 0.0, 0.0, 1.613351199119267E9, 2021-02-14 20:06:39.119
1.0, 13.517868041992188, 22.732982635498047, 18.92950439453125, 15.610342025756836, 0.08000000566244125, 0.01600000075995922, 1.040000081062317, 0.0, 0.0, 0.0, 0.0, 0.0, 1.613351199119267E9, 2021-02-14 20:06:39.119
2.0, 24.393497467041016, 30.19782257080078, 28.533567428588867, 31.183286666870117, 0.08000000566244125, 0.01600000075995922, 1.040000081062317, 0.0, 0.0, 0.0, 0.0, 0.0, 1.613351199134896E9, 2021-02-14 20:06:39.134
2.0, 13.207456588745117, 12.15280532836914, 5.813674449920654, 5.6696882247924805, 0.08000000566244125, 0.01600000075995922, 1.040000081062317, 0.0, 0.0, 0.0, 0.0, 0.0, 1.613351199134896E9, 2021-02-14 20:06:39.134
3.0, 13.895598411560059, 22.60956573486328, 19.348371505737305, 14.133082389831543, 0.08000000566244125, 0.01600000075995922, 1.040000081062317, 0.0, 0.0, 0.0, 0.0, 0.0, 1.613351199135667E9, 2021-02-14 20:06:39.135
3.0, 14.856752395629883, 27.478914260864258, 24.973182678222656, 26.859960556030273, 0.08000000566244125, 0.01600000075995922, 1.040000081062317, 0.0, 0.0, 0.0, 0.0, 0.0, 1.613351199135667E9, 2021-02-14 20:06:39.135
4.0, 15.354159355163574, 21.93264389038086, 19.11275863647461, 15.872135162353516, 0.08000000566244125, 0.01600000075995922, 1.040000081062317, 0.0, 0.0, 0.0, 0.0, 0.0, 1.613351199149265E9, 2021-02-14 20:06:39.149
4.0, 10.021061897277832, 14.770734786987305, 9.325440406799316, 8.545671463012695, 0.08000000566244125, 0.01600000075995922, 1.040000081062317, 0.0, 0.0, 0.0, 0.0, 0.0, 1.613351199149265E9, 2021-02-14 20:06:39.149
5.0, 17.65045738220215, 21.01262855529785, 18.331119537353516, 19.436260223388672, 0.08000000566244125, 0.01600000075995922, 1.040000081062317, 0.0, 0.0, 0.0, 0.0, 0.0, 1.613351199164862E9, 2021-02-14 20:06:39.164
5.0, 17.50086212158203, 30.194082260131836, 23.645517349243164, 24.380407333374023, 0.08000000566244125, 0.01600000075995922, 1.040000081062317, 0.0, 0.0, 0.0, 0.0, 0.0, 1.613351199164862E9, 2021-02-14 20:06:39.164
6.0, 9.863986015319824, 12.21264362335205, 1.3706732988357544, 7.591997146606445, 0.08000000566244125, 0.01600000075995922, 1.040000081062317, 0.0, 0.0, 0.0, 0.0, 0.0, 1.61335119916562E9, 2021-02-14 20:06:39.165
6.0, 12.638992309570312, 20.945310592651367, 19.569026947021484, 15.842216491699219, 0.08000000566244125, 0.01600000075995922, 1.040000081062317, 0.0, 0.0, 0.0, 0.0, 0.0, 1.61335119916562E9, 2021-02-14 20:06:39.165
7.0, 24.4608154296875, 29.12447166442871, 30.066925048828125, 31.370281219482422, 0.08000000566244125, 0.01600000075995922, 1.040000081062317, 0.0, 0.0, 0.0, 0.0, 0.0, 1.613351199179342E9, 2021-02-14 20:06:39.179
7.0, 11.288887977600098, 9.811627388000488, 2.156052350997925, 11.118722915649414, 0.08000000566244125, 0.01600000075995922, 1.040000081062317, 0.0, 0.0, 0.0, 0.0, 0.0, 1.613351199179342E9, 2021-02-14 20:06:39.179
8.0, 19.195035934448242, 20.31326675415039, 16.524747848510742, 20.60310935974121, 0.08000000566244125, 0.01600000075995922, 1.040000081062317, 0.0, 0.0, 0.0, 0.0, 0.0, 1.613351199194861E9, 2021-02-14 20:06:39.194
8.0, 19.314712524414062, 22.15703773498535, 28.294212341308594, 25.805309295654297, 0.08000000566244125, 0.01600000075995922, 1.040000081062317, 0.0, 0.0, 0.0, 0.0, 0.0, 1.613351199194861E9, 2021-02-14 20:06:39.194
9.0, 18.675189971923828, 17.059553146362305, 13.936737060546875, 17.278337478637695, 0.08000000566244125, 0.01600000075995922, 1.040000081062317, 0.0, 0.0, 0.0, 0.0, 0.0, 1.613351199195594E9, 2021-02-14 20:06:39.195
9.0, 7.567687511444092, 15.069927215576172, 6.023108959197998, 8.915921211242676, 0.08000000566244125, 0.01600000075995922, 1.040000081062317, 0.0, 0.0, 0.0, 0.0, 0.0, 1.613351199195594E9, 2021-02-14 20:06:39.195
10.0, 12.160284996032715, 20.2646484375, 24.774967193603516, 22.5590763092041, 0.08000000566244125, 0.01600000075995922, 1.040000081062317, 0.0, 0.0, 0.0, 0.0, 0.0, 1.613351199209219E9, 2021-02-14 20:06:39.209
10.0, 21.192142486572266, 30.351158142089844, 25.130258560180664, 26.845001220703125, 0.08000000566244125, 0.01600000075995922, 1.040000081062317, 0.0, 0.0, 0.0, 0.0, 0.0, 1.613351199209219E9, 2021-02-14 20:06:39.209
11.0, 10.350172996520996, 16.098400115966797, 3.6669719219207764, 1.9073489904403687, 0.08000000566244125, 0.01600000075995922, 1.040000081062317, 0.0, 0.0, 0.0, 0.0, 0.0, 1.613351199224606E9, 2021-02-14 20:06:39.224
11.0, 17.979568481445312, 23.17428970336914, 19.344633102416992, 15.591643333435059, 0.08000000566244125, 0.01600000075995922, 1.040000081062317, 0.0, 0.0, 0.0, 0.0, 0.0, 1.613351199224606E9, 2021-02-14 20:06:39.224
12.0, 20.51148223876953, 27.235820770263672, 27.860383987426758, 36.093772888183594, 0.08000000566244125, 0.01600000075995922, 1.040000081062317, 0.0, 0.0, 0.0, 0.0, 0.0, 1.613351199239859E9, 2021-02-14 20:06:39.239
12.0, 11.943370819091797, 8.446563720703125, 7.294674873352051, 5.119923114776611, 0.08000000566244125, 0.01600000075995922, 1.040000081062317, 0.0, 0.0, 0.0, 0.0, 0.0, 1.613351199239859E9, 2021-02-14 20:06:39.239
13.0, 14.673497200012207, 21.857845306396484, 13.278514862060547, 10.007972717285156, 0.08000000566244125, 0.01600000075995922, 1.040000081062317, 0.0, 0.0, 0.0, 0.0, 0.0, 1.613351199240615E9, 2021-02-14 20:06:39.240
13.0, 19.49422836303711, 27.65468978881836, 23.050872802734375, 24.4252872467041, 0.08000000566244125, 0.01600000075995922, 1.040000081062317, 0.0, 0.0, 0.0, 0.0, 0.0, 1.613351199240615E9, 2021-02-14 20:06:39.240
14.0, 16.53970718383789, 23.234128952026367, 11.681577682495117, 20.315135955810547, 0.08000000566244125, 0.01600000075995922, 1.040000081062317, 0.0, 0.0, 0.0, 0.0, 0.0, 1.613351199254948E9, 2021-02-14 20:06:39.254
14.0, 9.602192878723145, 14.942770004272461, 5.854813575744629, 13.658114433288574, 0.08000000566244125, 0.01600000075995922, 1.040000081062317, 0.0, 0.0, 0.0, 0.0, 0.0, 1.613351199254948E9, 2021-02-14 20:06:39.254
15.0, 15.413997650146484, 24.240161895751953, 21.416536331176758, 21.26133155822754, 0.08000000566244125, 0.01600000075995922, 1.040000081062317, 0.0, 0.0, 0.0, 0.0, 0.0, 1.613351199255677E9, 2021-02-14 20:06:39.255
15.0, 21.88776397705078, 27.70330810546875, 27.834205627441406, 36.30320739746094, 0.08000000566244125, 0.01600000075995922, 1.040000081062317, 0.0, 0.0, 0.0, 0.0, 0.0, 1.613351199255677E9, 2021-02-14 20:06:39.255
16.0, 6.812227725982666, 9.710650444030762, 4.9198384284973145, 1.0808310508728027, 0.08000000566244125, 0.01600000075995922, 1.040000081062317, 0.0, 0.0, 0.0, 0.0, 0.0, 1.613351199269245E9, 2021-02-14 20:06:39.269
16.0, 21.308080673217773, 22.632003784179688, 18.634052276611328, 16.904348373413086, 0.08000000566244125, 0.01600000075995922, 1.040000081062317, 0.0, 0.0, 0.0, 0.0, 0.0, 1.613351199269245E9, 2021-02-14 20:06:39.269
17.0, 14.699676513671875, 27.22460174560547, 24.41219711303711, 36.59492111206055, 0.08000000566244125, 0.01600000075995922, 1.040000081062317, 0.0, 0.0, 0.0, 0.0, 0.0, 1.613351199300679E9, 2021-02-14 20:06:39.300
17.0, 5.428464889526367, 12.642731666564941, 7.133859157562256, 4.588857173919678, 0.08000000566244125, 0.01600000075995922, 1.040000081062317, 0.0, 0.0, 0.0, 0.0, 0.0, 1.613351199300679E9, 2021-02-14 20:06:39.300
18.0, 16.592065811157227, 20.904170989990234, 16.072219848632812, 16.406940460205078, 0.08000000566244125, 0.01600000075995922, 1.040000081062317, 0.0, 0.0, 0.0, 0.0, 0.0, 1.613351199301449E9, 2021-02-14 20:06:39.301
18.0, 21.35295867919922, 26.671096801757812, 24.81984519958496, 26.074583053588867, 0.08000000566244125, 0.01600000075995922, 1.040000081062317, 0.0, 0.0, 0.0, 0.0, 0.0, 1.613351199301449E9, 2021-02-14 20:06:39.301
19.0, 13.731042861938477, 22.063539505004883, 14.658537864685059, 19.39512062072754, 0.08000000566244125, 0.01600000075995922, 1.040000081062317, 0.0, 0.0, 0.0, 0.0, 0.0, 1.613351199302075E9, 2021-02-14 20:06:39.302
19.0, 10.963517189025879, 10.671804428100586, 9.071126937866211, 8.17168140411377, 0.08000000566244125, 0.01600000075995922, 1.040000081062317, 0.0, 0.0, 0.0, 0.0, 0.0, 1.613351199302075E9, 2021-02-14 20:06:39.302
20.0, 15.0736665725708, 19.501708984375, 15.773028373718262, 17.454113006591797, 0.08000000566244125, 0.01600000075995922, 1.040000081062317, 0.0, 0.0, 0.0, 0.0, 0.0, 1.613351199314911E9, 2021-02-14 20:06:39.314
20.0, 17.57939910888672, 26.921669006347656, 24.386016845703125, 27.54810333251953, 0.08000000566244125, 0.01600000075995922, 1.040000081062317, 0.0, 0.0, 0.0, 0.0, 0.0, 1.613351199314911E9, 2021-02-14 20:06:39.314
21.0, 12.451996803283691, 8.124932289123535, 1.9840168952941895, 5.3704962730407715, 0.08000000566244125, 0.01600000075995922, 1.040000081062317, 0.0, 0.0, 0.0, 0.0, 0.0, 1.613351199315656E9, 2021-02-14 20:06:39.315
21.0, 21.04254722595215, 25.863277435302734, 21.192142486572266, 24.197153091430664, 0.08000000566244125, 0.01600000075995922, 1.040000081062317, 0.0, 0.0, 0.0, 0.0, 0.0, 1.613351199315656E9, 2021-02-14 20:06:39.315
22.0, 22.3889102935791, 34.02000045776367, 27.56867218017578, 33.12055587768555, 0.08000000566244125, 0.01600000075995922, 1.040000081062317, 0.0, 0.0, 0.0, 0.0, 0.0, 1.613351199329262E9, 2021-02-14 20:06:39.329
22.0, 10.413751602172852, 9.71438980102539, 3.5809543132781982, 7.229226589202881, 0.08000000566244125, 0.01600000075995922, 1.040000081062317, 0.0, 0.0, 0.0, 0.0, 0.0, 1.613351199329262E9, 2021-02-14 20:06:39.329
23.0, 16.708003997802734, 23.694135665893555, 15.825387001037598, 17.809404373168945, 0.08000000566244125, 0.01600000075995922, 1.040000081062317, 0.0, 0.0, 0.0, 0.0, 0.0, 1.613351199344902E9, 2021-02-14 20:06:39.344
23.0, 17.837451934814453, 30.54563331604004, 28.60836410522461, 29.95659828186035, 0.08000000566244125, 0.01600000075995922, 1.040000081062317, 0.0, 0.0, 0.0, 0.0, 0.0, 1.613351199344902E9, 2021-02-14 20:06:39.344
24.0, 15.743108749389648, 23.1107120513916, 18.035667419433594, 18.366649627685547, 0.08000000566244125, 0.01600000075995922, 1.040000081062317, 0.0, 0.0, 0.0, 0.0, 0.0, 1.613351199345651E9, 2021-02-14 20:06:39.345
24.0, 10.95229721069336, 14.048933982849121, 12.21638298034668, 8.261439323425293, 0.08000000566244125, 0.01600000075995922, 1.040000081062317, 0.0, 0.0, 0.0, 0.0, 0.0, 1.613351199345651E9, 2021-02-14 20:06:39.345
25.0, 15.93010425567627, 20.915390014648438, 23.83999252319336, 17.86176300048828, 0.08000000566244125, 0.01600000075995922, 1.040000081062317, 0.0, 0.0, 0.0, 0.0, 0.0, 1.613351199359237E9, 2021-02-14 20:06:39.359
25.0, 19.468050003051758, 29.446102142333984, 27.505094528198242, 34.97554397583008, 0.08000000566244125, 0.01600000075995922, 1.040000081062317, 0.0, 0.0, 0.0, 0.0, 0.0, 1.613351199359237E9, 2021-02-14 20:06:39.359
26.0, 5.578060626983643, 8.71209716796875, -0.043008849024772644, 2.4907734394073486, 0.08000000566244125, 0.01600000075995922, 1.040000081062317, 0.0, 0.0, 0.0, 0.0, 0.0, 1.61335119937491E9, 2021-02-14 20:06:39.374
26.0, 17.295167922973633, 22.549726486206055, 17.018415451049805, 24.48138427734375, 0.08000000566244125, 0.01600000075995922, 1.040000081062317, 0.0, 0.0, 0.0, 0.0, 0.0, 1.61335119937491E9, 2021-02-14 20:06:39.374
27.0, 17.56443977355957, 28.34657096862793, 26.143770217895508, 27.61916160583496, 0.08000000566244125, 0.01600000075995922, 1.040000081062317, 0.0, 0.0, 0.0, 0.0, 0.0, 1.61335119937564E9, 2021-02-14 20:06:39.375
27.0, 9.362839698791504, 8.622339248657227, 2.952651023864746, -0.7554597854614258, 0.08000000566244125, 0.01600000075995922, 1.040000081062317, 0.0, 0.0, 0.0, 0.0, 0.0, 1.61335119937564E9, 2021-02-14 20:06:39.375
28.0, 16.756622314453125, 17.88233184814453, 15.660831451416016, 21.35856819152832, 0.08000000566244125, 0.01600000075995922, 1.040000081062317, 0.0, 0.0, 0.0, 0.0, 0.0, 1.613351199389278E9, 2021-02-14 20:06:39.389
28.0, 22.014921188354492, 28.08477783203125, 26.349464416503906, 25.86888885498047, 0.08000000566244125, 0.01600000075995922, 1.040000081062317, 0.0, 0.0, 0.0, 0.0, 0.0, 1.613351199389278E9, 2021-02-14 20:06:39.389
29.0, 15.470096588134766, 19.778461456298828, 22.05232048034668, 22.244924545288086, 0.08000000566244125, 0.01600000075995922, 1.040000081062317, 0.0, 0.0, 0.0, 0.0, 0.0, 1.613351199404964E9, 2021-02-14 20:06:39.404
29.0, 11.498322486877441, 19.797161102294922, 11.367425918579102, 10.553997993469238, 0.08000000566244125, 0.01600000075995922, 1.040000081062317, 0.0, 0.0, 0.0, 0.0, 0.0, 1.613351199404964E9, 2021-02-14 20:06:39.404
30.0, 18.462017059326172, 20.578800201416016, 20.75831413269043, 18.407787322998047, 0.08000000566244125, 0.01600000075995922, 1.040000081062317, 0.0, 0.0, 0.0, 0.0, 0.0, 1.61335119940566E9, 2021-02-14 20:06:39.405
30.0, 22.403871536254883, 29.135690689086914, 26.760854721069336, 31.474998474121094, 0.08000000566244125, 0.01600000075995922, 1.040000081062317, 0.0, 0.0, 0.0, 0.0, 0.0, 1.61335119940566E9, 2021-02-14 20:06:39.405
31.0, 5.286348819732666, 8.27078914642334, -2.4253251552581787, 1.469780683517456, 0.08000000566244125, 0.01600000075995922, 1.040000081062317, 0.0, 0.0, 0.0, 0.0, 0.0, 1.613351199435695E9, 2021-02-14 20:06:39.435
31.0, 15.77676773071289, 21.8316650390625, 15.054966926574707, 21.201492309570312, 0.08000000566244125, 0.01600000075995922, 1.040000081062317, 0.0, 0.0, 0.0, 0.0, 0.0, 1.613351199435695E9, 2021-02-14 20:06:39.435
32.0, 23.58568000793457, 32.61753845214844, 27.748188018798828, 28.774789810180664, 0.08000000566244125, 0.01600000075995922, 1.040000081062317, 0.0, 0.0, 0.0, 0.0, 0.0, 1.613351199436587E9, 2021-02-14 20:06:39.436
32.0, 10.424971580505371, 13.35705280303955, 2.5001230239868164, -0.5273258686065674, 0.08000000566244125, 0.01600000075995922, 1.040000081062317, 0.0, 0.0, 0.0, 0.0, 0.0, 1.613351199436587E9, 2021-02-14 20:06:39.436
33.0, 11.550681114196777, 24.03072738647461, 12.53427505493164, 19.33154296875, 0.08000000566244125, 0.01600000075995922, 1.040000081062317, 0.0, 0.0, 0.0, 0.0, 0.0, 1.613351199437193E9, 2021-02-14 20:06:39.437
33.0, 16.838899612426758, 25.34343147277832, 26.285886764526367, 24.82171630859375, 0.08000000566244125, 0.01600000075995922, 1.040000081062317, 0.0, 0.0, 0.0, 0.0, 0.0, 1.613351199437193E9, 2021-02-14 20:06:39.437
34.0, 17.975830078125, 18.895845413208008, 20.4815616607666, 18.75933837890625, 0.08000000566244125, 0.01600000075995922, 1.040000081062317, 0.0, 0.0, 0.0, 0.0, 0.0, 1.613351199449213E9, 2021-02-14 20:06:39.449
34.0, 13.17753791809082, 17.04085350036621, 12.051827430725098, 8.336236953735352, 0.08000000566244125, 0.01600000075995922, 1.040000081062317, 0.0, 0.0, 0.0, 0.0, 0.0, 1.613351199449213E9, 2021-02-14 20:06:39.449
35.0, 15.0736665725708, 23.095752716064453, 19.643823623657227, 18.662099838256836, 0.08000000566244125, 0.01600000075995922, 1.040000081062317, 0.0, 0.0, 0.0, 0.0, 0.0, 1.613351199464923E9, 2021-02-14 20:06:39.464
35.0, 21.985002517700195, 28.72804069519043, 30.97572135925293, 30.450265884399414, 0.08000000566244125, 0.01600000075995922, 1.040000081062317, 0.0, 0.0, 0.0, 0.0, 0.0, 1.613351199464923E9, 2021-02-14 20:06:39.464
36.0, 7.429311275482178, 7.294674873352051, 1.194898009300232, -2.827364444732666, 0.08000000566244125, 0.01600000075995922, 1.040000081062317, 0.0, 0.0, 0.0, 0.0, 0.0, 1.613351199465672E9, 2021-02-14 20:06:39.465
36.0, 16.30035400390625, 21.158483505249023, 22.54598617553711, 25.30042266845703, 0.08000000566244125, 0.01600000075995922, 1.040000081062317, 0.0, 0.0, 0.0, 0.0, 0.0, 1.613351199465672E9, 2021-02-14 20:06:39.465
37.0, 20.19359016418457, 32.22858810424805, 29.763994216918945, 35.66742706298828, 0.08000000566244125, 0.01600000075995922, 1.040000081062317, 0.0, 0.0, 0.0, 0.0, 0.0, 1.613351199479248E9, 2021-02-14 20:06:39.479
37.0, 13.289734840393066, 14.651058197021484, 5.435944557189941, 9.353489875793457, 0.08000000566244125, 0.01600000075995922, 1.040000081062317, 0.0, 0.0, 0.0, 0.0, 0.0, 1.613351199479248E9, 2021-02-14 20:06:39.479
38.0, 17.025894165039062, 17.414844512939453, 16.648164749145508, 16.33588218688965, 0.08000000566244125, 0.01600000075995922, 1.040000081062317, 0.0, 0.0, 0.0, 0.0, 0.0, 1.61335119949488E9, 2021-02-14 20:06:39.494
38.0, 16.741662979125977, 29.199268341064453, 28.22689437866211, 25.9810848236084, 0.08000000566244125, 0.01600000075995922, 1.040000081062317, 0.0, 0.0, 0.0, 0.0, 0.0, 1.61335119949488E9, 2021-02-14 20:06:39.494
39.0, 16.128318786621094, 22.64696502685547, 13.233635902404785, 17.78322410583496, 0.08000000566244125, 0.01600000075995922, 1.040000081062317, 0.0, 0.0, 0.0, 0.0, 0.0, 1.613351199495661E9, 2021-02-14 20:06:39.495
39.0, 10.174397468566895, 13.49916934967041, 3.3116815090179443, 6.739299774169922, 0.08000000566244125, 0.01600000075995922, 1.040000081062317, 0.0, 0.0, 0.0, 0.0, 0.0, 1.613351199495661E9, 2021-02-14 20:06:39.495
40.0, 15.750588417053223, 19.98041534423828, 18.6041316986084, 19.660654067993164, 0.08000000566244125, 0.01600000075995922, 1.040000081062317, 0.0, 0.0, 0.0, 0.0, 0.0, 1.613351199509366E9, 2021-02-14 20:06:39.509
40.0, 20.66107749938965, 27.579893112182617, 26.413043975830078, 31.736791610717773, 0.08000000566244125, 0.01600000075995922, 1.040000081062317, 0.0, 0.0, 0.0, 0.0, 0.0, 1.613351199509366E9, 2021-02-14 20:06:39.509
41.0, 7.601346492767334, 10.09585952758789, 4.24665641784668, -4.8244709968566895, 0.08000000566244125, 0.01600000075995922, 1.040000081062317, 0.0, 0.0, 0.0, 0.0, 0.0, 1.613351199524926E9, 2021-02-14 20:06:39.524
41.0, 12.85590648651123, 20.489042282104492, 15.126025199890137, 21.21645164489746, 0.08000000566244125, 0.01600000075995922, 1.040000081062317, 0.0, 0.0, 0.0, 0.0, 0.0, 1.613351199524926E9, 2021-02-14 20:06:39.524
42.0, 23.537059783935547, 35.40376281738281, 31.918176651000977, 33.7563362121582, 0.08000000566244125, 0.01600000075995922, 1.040000081062317, 0.0, 0.0, 0.0, 0.0, 0.0, 1.613351199525632E9, 2021-02-14 20:06:39.525
42.0, 7.870619297027588, 12.870865821838379, 6.539215087890625, 5.336837291717529, 0.08000000566244125, 0.01600000075995922, 1.040000081062317, 0.0, 0.0, 0.0, 0.0, 0.0, 1.613351199525632E9, 2021-02-14 20:06:39.525
43.0, 18.56673240661621, 21.154743194580078, 13.55152702331543, 18.280630111694336, 0.08000000566244125, 0.01600000075995922, 1.040000081062317, 0.0, 0.0, 0.0, 0.0, 0.0, 1.613351199539207E9, 2021-02-14 20:06:39.539
43.0, 15.327980041503906, 24.307479858398438, 25.945556640625, 29.99399757385254, 0.08000000566244125, 0.01600000075995922, 1.040000081062317, 0.0, 0.0, 0.0, 0.0, 0.0, 1.613351199539207E9, 2021-02-14 20:06:39.539
44.0, 11.745155334472656, 16.984756469726562, 16.311573028564453, 18.104856491088867, 0.08000000566244125, 0.01600000075995922, 1.040000081062317, 0.0, 0.0, 0.0, 0.0, 0.0, 1.613351199554972E9, 2021-02-14 20:06:39.554
44.0, 10.7017240524292, 11.015874862670898, 6.475636959075928, 12.883955001831055, 0.08000000566244125, 0.01600000075995922, 1.040000081062317, 0.0, 0.0, 0.0, 0.0, 0.0, 1.613351199554972E9, 2021-02-14 20:06:39.554
45.0, 18.7799072265625, 19.363332748413086, 16.75288200378418, 15.976852416992188, 0.08000000566244125, 0.01600000075995922, 1.040000081062317, 0.0, 0.0, 0.0, 0.0, 0.0, 1.613351199555681E9, 2021-02-14 20:06:39.555
45.0, 19.901878356933594, 26.753374099731445, 24.049427032470703, 32.23419952392578, 0.08000000566244125, 0.01600000075995922, 1.040000081062317, 0.0, 0.0, 0.0, 0.0, 0.0, 1.613351199555681E9, 2021-02-14 20:06:39.555
46.0, 5.836113929748535, 12.612812995910645, 1.2098575830459595, 2.640369415283203, 0.08000000566244125, 0.01600000075995922, 1.040000081062317, 0.0, 0.0, 0.0, 0.0, 0.0, 1.613351199569437E9, 2021-02-14 20:06:39.569
46.0, 17.0371150970459, 24.97692108154297, 15.402777671813965, 19.410079956054688, 0.08000000566244125, 0.01600000075995922, 1.040000081062317, 0.0, 0.0, 0.0, 0.0, 0.0, 1.613351199569437E9, 2021-02-14 20:06:39.569
47.0, 17.773874282836914, 31.200115203857422, 30.49701499938965, 27.39476776123047, 0.08000000566244125, 0.01600000075995922, 1.040000081062317, 0.0, 0.0, 0.0, 0.0, 0.0, 1.613351199585022E9, 2021-02-14 20:06:39.585
47.0, 10.73912239074707, 9.493736267089844, 2.3168680667877197, 3.4332282543182373, 0.08000000566244125, 0.01600000075995922, 1.040000081062317, 0.0, 0.0, 0.0, 0.0, 0.0, 1.613351199585022E9, 2021-02-14 20:06:39.585
48.0, 9.037467956542969, 19.29601287841797, 12.078006744384766, 14.765125274658203, 0.08000000566244125, 0.01600000075995922, 1.040000081062317, 0.0, 0.0, 0.0, 0.0, 0.0, 1.613351199585762E9, 2021-02-14 20:06:39.585
48.0, 17.695337295532227, 25.80344009399414, 24.169103622436523, 28.26242446899414, 0.08000000566244125, 0.01600000075995922, 1.040000081062317, 0.0, 0.0, 0.0, 0.0, 0.0, 1.613351199585762E9, 2021-02-14 20:06:39.585
49.0, 15.15594482421875, 19.90935707092285, 20.201068878173828, 21.4445858001709, 0.08000000566244125, 0.01600000075995922, 1.040000081062317, 0.0, 0.0, 0.0, 0.0, 0.0, 1.613351199599218E9, 2021-02-14 20:06:39.599
49.0, 12.825986862182617, 10.301554679870605, 7.051581382751465, 10.168787956237793, 0.08000000566244125, 0.01600000075995922, 1.040000081062317, 0.0, 0.0, 0.0, 0.0, 0.0, 1.613351199599218E9, 2021-02-14 20:06:39.599
50.0, 17.534521102905273, 21.91768455505371, 18.70884895324707, 9.19641399383545, 0.08000000566244125, 0.01600000075995922, 1.040000081062317, 0.0, 0.0, 0.0, 0.0, 0.0, 1.613351199615616E9, 2021-02-14 20:06:39.615
50.0, 16.405071258544922, 27.546232223510742, 27.778106689453125, 33.30754852294922, 0.08000000566244125, 0.01600000075995922, 1.040000081062317, 0.0, 0.0, 0.0, 0.0, 0.0, 1.613351199615616E9, 2021-02-14 20:06:39.615
51.0, 11.195390701293945, 14.019015312194824, 8.857953071594238, 3.3285109996795654, 0.08000000566244125, 0.01600000075995922, 1.040000081062317, 0.0, 0.0, 0.0, 0.0, 0.0, 1.613351199616412E9, 2021-02-14 20:06:39.616
51.0, 18.06558609008789, 22.29167366027832, 18.245101928710938, 21.67646026611328, 0.08000000566244125, 0.01600000075995922, 1.040000081062317, 0.0, 0.0, 0.0, 0.0, 0.0, 1.613351199616412E9, 2021-02-14 20:06:39.616
52.0, 21.517515182495117, 26.9141902923584, 27.149803161621094, 34.07048797607422, 0.08000000566244125, 0.01600000075995922, 1.040000081062317, 0.0, 0.0, 0.0, 0.0, 0.0, 1.613351199645587E9, 2021-02-14 20:06:39.645
52.0, 5.7126970291137695, 13.61884593963623, 5.869772911071777, 3.0293190479278564, 0.08000000566244125, 0.01600000075995922, 1.040000081062317, 0.0, 0.0, 0.0, 0.0, 0.0, 1.613351199645587E9, 2021-02-14 20:06:39.645
53.0, 18.824787139892578, 18.495676040649414, 16.004901885986328, 21.040678024291992, 0.08000000566244125, 0.01600000075995922, 1.040000081062317, 0.0, 0.0, 0.0, 0.0, 0.0, 1.613351199646391E9, 2021-02-14 20:06:39.646
53.0, 20.70969581604004, 27.288179397583008, 24.999361038208008, 32.13322067260742, 0.08000000566244125, 0.01600000075995922, 1.040000081062317, 0.0, 0.0, 0.0, 0.0, 0.0, 1.613351199646391E9, 2021-02-14 20:06:39.646
54.0, 14.168610572814941, 20.06643295288086, 17.11939239501953, 22.14394760131836, 0.08000000566244125, 0.01600000075995922, 1.040000081062317, 0.0, 0.0, 0.0, 0.0, 0.0, 1.613351199647079E9, 2021-02-14 20:06:39.647
54.0, 12.91574478149414, 19.73358154296875, 7.6125664710998535, -0.4861869812011719, 0.08000000566244125, 0.01600000075995922, 1.040000081062317, 0.0, 0.0, 0.0, 0.0, 0.0, 1.613351199647079E9, 2021-02-14 20:06:39.647
55.0, 14.374305725097656, 24.924562454223633, 15.245701789855957, 21.855976104736328, 0.08000000566244125, 0.01600000075995922, 1.040000081062317, 0.0, 0.0, 0.0, 0.0, 0.0, 1.613351199659234E9, 2021-02-14 20:06:39.659
55.0, 18.46949577331543, 26.282146453857422, 30.942062377929688, 24.810495376586914, 0.08000000566244125, 0.01600000075995922, 1.040000081062317, 0.0, 0.0, 0.0, 0.0, 0.0, 1.613351199659234E9, 2021-02-14 20:06:39.659
56.0, 9.576013565063477, 9.639592170715332, 5.095613479614258, 2.423455238342285, 0.08000000566244125, 0.01600000075995922, 1.040000081062317, 0.0, 0.0, 0.0, 0.0, 0.0, 1.613351199674969E9, 2021-02-14 20:06:39.674
56.0, 19.266094207763672, 24.53935432434082, 16.651905059814453, 18.609743118286133, 0.08000000566244125, 0.01600000075995922, 1.040000081062317, 0.0, 0.0, 0.0, 0.0, 0.0, 1.613351199674969E9, 2021-02-14 20:06:39.674
57.0, 20.582538604736328, 25.9866943359375, 29.56951904296875, 30.700838088989258, 0.08000000566244125, 0.01600000075995922, 1.040000081062317, 0.0, 0.0, 0.0, 0.0, 0.0, 1.613351199675716E9, 2021-02-14 20:06:39.675
57.0, 8.382986068725586, 12.994282722473145, 6.243762969970703, 9.342269897460938, 0.08000000566244125, 0.01600000075995922, 1.040000081062317, 0.0, 0.0, 0.0, 0.0, 0.0, 1.613351199675716E9, 2021-02-14 20:06:39.675
58.0, 15.051227569580078, 22.048580169677734, 15.922623634338379, 19.301624298095703, 0.08000000566244125, 0.01600000075995922, 1.040000081062317, 0.0, 0.0, 0.0, 0.0, 0.0, 1.613351199689233E9, 2021-02-14 20:06:39.689
58.0, 18.652751922607422, 25.91563606262207, 22.890058517456055, 26.972158432006836, 0.08000000566244125, 0.01600000075995922, 1.040000081062317, 0.0, 0.0, 0.0, 0.0, 0.0, 1.613351199689233E9, 2021-02-14 20:06:39.689
59.0, 14.344386100769043, 15.189603805541992, 15.103586196899414, 18.729419708251953, 0.08000000566244125, 0.01600000075995922, 1.040000081062317, 0.0, 0.0, 0.0, 0.0, 0.0, 1.613351199704869E9, 2021-02-14 20:06:39.704
59.0, 17.029634475708008, 16.334012985229492, 8.779415130615234, 9.82845687866211, 0.08000000566244125, 0.01600000075995922, 1.040000081062317, 0.0, 0.0, 0.0, 0.0, 0.0, 1.613351199704869E9, 2021-02-14 20:06:39.704
60.0, 19.40821075439453, 23.739015579223633, 17.26150894165039, 20.73774528503418, 0.08000000566244125, 0.01600000075995922, 1.040000081062317, 0.0, 0.0, 0.0, 0.0, 0.0, 1.613351199705648E9, 2021-02-14 20:06:39.705
60.0, 22.65070343017578, 24.647809982299805, 26.285886764526367, 33.913414001464844, 0.08000000566244125, 0.01600000075995922, 1.040000081062317, 0.0, 0.0, 0.0, 0.0, 0.0, 1.613351199705648E9, 2021-02-14 20:06:39.705
61.0, 5.447164058685303, 6.501816272735596, 5.959530353546143, 2.232720375061035, 0.08000000566244125, 0.01600000075995922, 1.040000081062317, 0.0, 0.0, 0.0, 0.0, 0.0, 1.613351199719263E9, 2021-02-14 20:06:39.719
61.0, 17.560699462890625, 28.761699676513672, 18.63779067993164, 17.730865478515625, 0.08000000566244125, 0.01600000075995922, 1.040000081062317, 0.0, 0.0, 0.0, 0.0, 0.0, 1.613351199719263E9, 2021-02-14 20:06:39.719
62.0, 18.877145767211914, 33.39917755126953, 31.686302185058594, 28.890727996826172, 0.08000000566244125, 0.01600000075995922, 1.040000081062317, 0.0, 0.0, 0.0, 0.0, 0.0, 1.613351199734866E9, 2021-02-14 20:06:39.734
62.0, 7.380692481994629, 9.471296310424805, 6.916944980621338, 8.762585639953613, 0.08000000566244125, 0.01600000075995922, 1.040000081062317, 0.0, 0.0, 0.0, 0.0, 0.0, 1.613351199734866E9, 2021-02-14 20:06:39.734
63.0, 14.306986808776855, 21.67085075378418, 13.540307998657227, 21.799877166748047, 0.08000000566244125, 0.01600000075995922, 1.040000081062317, 0.0, 0.0, 0.0, 0.0, 0.0, 1.613351199735615E9, 2021-02-14 20:06:39.735
63.0, 16.73792266845703, 24.109264373779297, 23.047134399414062, 24.664640426635742, 0.08000000566244125, 0.01600000075995922, 1.040000081062317, 0.0, 0.0, 0.0, 0.0, 0.0, 1.613351199735615E9, 2021-02-14 20:06:39.735
64.0, 14.00031566619873, 20.922870635986328, 16.405071258544922, 19.8887882232666, 0.08000000566244125, 0.01600000075995922, 1.040000081062317, 0.0, 0.0, 0.0, 0.0, 0.0, 1.613351199749472E9, 2021-02-14 20:06:39.749
64.0, 17.089473724365234, 12.399638175964355, 7.59386682510376, 11.978899955749512, 0.08000000566244125, 0.01600000075995922, 1.040000081062317, 0.0, 0.0, 0.0, 0.0, 0.0, 1.613351199749472E9, 2021-02-14 20:06:39.749
65.0, 18.82852554321289, 19.509187698364258, 17.788833618164062, 18.445186614990234, 0.08000000566244125, 0.01600000075995922, 1.040000081062317, 0.0, 0.0, 0.0, 0.0, 0.0, 1.61335119976497E9, 2021-02-14 20:06:39.764
65.0, 20.537660598754883, 28.73552131652832, 30.676528930664062, 30.117414474487305, 0.08000000566244125, 0.01600000075995922, 1.040000081062317, 0.0, 0.0, 0.0, 0.0, 0.0, 1.61335119976497E9, 2021-02-14 20:06:39.764
66.0, 7.863139629364014, 10.151958465576172, 2.5824010372161865, 1.877429723739624, 0.08000000566244125, 0.01600000075995922, 1.040000081062317, 0.0, 0.0, 0.0, 0.0, 0.0, 1.613351199765675E9, 2021-02-14 20:06:39.765
66.0, 15.885225296020508, 18.656490325927734, 19.890657424926758, 20.176759719848633, 0.08000000566244125, 0.01600000075995922, 1.040000081062317, 0.0, 0.0, 0.0, 0.0, 0.0, 1.613351199765675E9, 2021-02-14 20:06:39.765
67.0, 18.555513381958008, 28.0286808013916, 27.44899559020996, 33.995689392089844, 0.08000000566244125, 0.01600000075995922, 1.040000081062317, 0.0, 0.0, 0.0, 0.0, 0.0, 1.61335119977929E9, 2021-02-14 20:06:39.779
67.0, 11.662878036499023, 15.64587116241455, 8.637298583984375, 5.007726192474365, 0.08000000566244125, 0.01600000075995922, 1.040000081062317, 0.0, 0.0, 0.0, 0.0, 0.0, 1.61335119977929E9, 2021-02-14 20:06:39.779
68.0, 12.642731666564941, 20.687255859375, 12.02564811706543, 14.559430122375488, 0.08000000566244125, 0.01600000075995922, 1.040000081062317, 0.0, 0.0, 0.0, 0.0, 0.0, 1.613351199794856E9, 2021-02-14 20:06:39.794
68.0, 15.193343162536621, 34.10227584838867, 22.403871536254883, 27.49200439453125, 0.08000000566244125, 0.01600000075995922, 1.040000081062317, 0.0, 0.0, 0.0, 0.0, 0.0, 1.613351199794856E9, 2021-02-14 20:06:39.794
69.0, 11.816213607788086, 21.67085075378418, 17.646717071533203, 21.152873992919922, 0.08000000566244125, 0.01600000075995922, 1.040000081062317, 0.0, 0.0, 0.0, 0.0, 0.0, 1.613351199795595E9, 2021-02-14 20:06:39.795
69.0, 13.1663179397583, 17.186710357666016, 7.5041093826293945, 3.997952938079834, 0.08000000566244125, 0.01600000075995922, 1.040000081062317, 0.0, 0.0, 0.0, 0.0, 0.0, 1.613351199795595E9, 2021-02-14 20:06:39.795
70.0, 18.772428512573242, 20.57505989074707, 16.629465103149414, 13.755352020263672, 0.08000000566244125, 0.01600000075995922, 1.040000081062317, 0.0, 0.0, 0.0, 0.0, 0.0, 1.613351199809231E9, 2021-02-14 20:06:39.809
70.0, 19.76350212097168, 27.766887664794922, 28.11469841003418, 27.82485580444336, 0.08000000566244125, 0.01600000075995922, 1.040000081062317, 0.0, 0.0, 0.0, 0.0, 0.0, 1.613351199809231E9, 2021-02-14 20:06:39.809
71.0, 7.8855791091918945, 10.350172996520996, 2.6384994983673096, 7.341423511505127, 0.08000000566244125, 0.01600000075995922, 1.040000081062317, 0.0, 0.0, 0.0, 0.0, 0.0, 1.613351199824947E9, 2021-02-14 20:06:39.824
71.0, 16.68930435180664, 22.60208511352539, 15.851566314697266, 21.67646026611328, 0.08000000566244125, 0.01600000075995922, 1.040000081062317, 0.0, 0.0, 0.0, 0.0, 0.0, 1.613351199824947E9, 2021-02-14 20:06:39.824
72.0, 18.652751922607422, 26.117591857910156, 28.077299118041992, 35.56270980834961, 0.08000000566244125, 0.01600000075995922, 1.040000081062317, 0.0, 0.0, 0.0, 0.0, 0.0, 1.61335119982562E9, 2021-02-14 20:06:39.825
72.0, 10.79896068572998, 10.346433639526367, 8.106233596801758, 11.545071601867676, 0.08000000566244125, 0.01600000075995922, 1.040000081062317, 0.0, 0.0, 0.0, 0.0, 0.0, 1.61335119982562E9, 2021-02-14 20:06:39.825
73.0, 13.906818389892578, 15.653350830078125, 14.44162368774414, 13.216806411743164, 0.08000000566244125, 0.01600000075995922, 1.040000081062317, 0.0, 0.0, 0.0, 0.0, 0.0, 1.613351199839163E9, 2021-02-14 20:06:39.839
73.0, 17.661678314208984, 24.808626174926758, 20.436683654785156, 29.13755989074707, 0.08000000566244125, 0.01600000075995922, 1.040000081062317, 0.0, 0.0, 0.0, 0.0, 0.0, 1.613351199839163E9, 2021-02-14 20:06:39.839
74.0, 13.521608352661133, 21.704509735107422, 14.916590690612793, 22.394521713256836, 0.08000000566244125, 0.01600000075995922, 1.040000081062317, 0.0, 0.0, 0.0, 0.0, 0.0, 1.613351199854882E9, 2021-02-14 20:06:39.854
74.0, 14.740816116333008, 15.593512535095215, 9.632112503051758, 8.616729736328125, 0.08000000566244125, 0.01600000075995922, 1.040000081062317, 0.0, 0.0, 0.0, 0.0, 0.0, 1.613351199854882E9, 2021-02-14 20:06:39.854
75.0, 18.117944717407227, 25.631404876708984, 22.127117156982422, 19.83268928527832, 0.08000000566244125, 0.01600000075995922, 1.040000081062317, 0.0, 0.0, 0.0, 0.0, 0.0, 1.613351199855617E9, 2021-02-14 20:06:39.855
75.0, 18.607872009277344, 27.411596298217773, 27.770627975463867, 33.042015075683594, 0.08000000566244125, 0.01600000075995922, 1.040000081062317, 0.0, 0.0, 0.0, 0.0, 0.0, 1.613351199855617E9, 2021-02-14 20:06:39.855
76.0, 8.18851089477539, 7.7771220207214355, 3.7529895305633545, -2.1317429542541504, 0.08000000566244125, 0.01600000075995922, 1.040000081062317, 0.0, 0.0, 0.0, 0.0, 0.0, 1.613351199869195E9, 2021-02-14 20:06:39.869
76.0, 15.874005317687988, 12.736228942871094, 16.218076705932617, 16.219945907592773, 0.08000000566244125, 0.01600000075995922, 1.040000081062317, 0.0, 0.0, 0.0, 0.0, 0.0, 1.613351199869195E9, 2021-02-14 20:06:39.869
77.0, 17.24654769897461, 31.68256187438965, 29.318944931030273, 33.12803268432617, 0.08000000566244125, 0.01600000075995922, 1.040000081062317, 0.0, 0.0, 0.0, 0.0, 0.0, 1.61335119988492E9, 2021-02-14 20:06:39.884
77.0, 9.347880363464355, 12.635251998901367, 9.46381664276123, 8.927141189575195, 0.08000000566244125, 0.01600000075995922, 1.040000081062317, 0.0, 0.0, 0.0, 0.0, 0.0, 1.61335119988492E9, 2021-02-14 20:06:39.884
78.0, 17.482162475585938, 20.859291076660156, 14.340646743774414, 14.099422454833984, 0.08000000566244125, 0.01600000075995922, 1.040000081062317, 0.0, 0.0, 0.0, 0.0, 0.0, 1.613351199885663E9, 2021-02-14 20:06:39.885
78.0, 16.61076545715332, 27.628511428833008, 23.929750442504883, 24.4252872467041, 0.08000000566244125, 0.01600000075995922, 1.040000081062317, 0.0, 0.0, 0.0, 0.0, 0.0, 1.613351199885663E9, 2021-02-14 20:06:39.885
