%OpenBCI Raw EEG Data
%Number of channels = 4
%Sample Rate = 200 Hz
%Board = OpenBCI_GUI$BoardGanglionBLE
Sample Index, EXG Channel 0, EXG Channel 1, EXG Channel 2, EXG Channel 3, Accel Channel 0, Accel Channel 1, Accel Channel 2, Other, Other, Other, Other, Other, Timestamp, Timestamp (Formatted)
2.0, -6.8253173828125, -17.386795043945312, -14.005925178527832, -22.562816619873047, 0.08000000566244125, 0.0, 0.0, 0.0, 0.0, 0.0, 0.0, 0.0, 1.613351081997182E9, 2021-02-14 20:04:41.997
2.0, -4.248526573181152, -10.40066146850586, -6.0511579513549805, -6.19327449798584, 0.08000000566244125, 0.0, 0.0, 0.0, 0.0, 0.0, 0.0, 0.0, 1.613351081997182E9, 2021-02-14 20:04:41.997
3.0, -0.4001692831516266, -3.2724125385284424, -3.9792535305023193, -1.7465332746505737, 0.08000000566244125, 0.0, 0.0, 0.0, 0.0, 0.0, 0.0, 0.0, 1.613351082010746E9, 2021-02-14 20:04:42.010
3.0, -8.949580192565918, -19.245525360107422, -23.187379837036133, -22.229965209960938, 0.08000000566244125, 0.0, 0.0, 0.0, 0.0, 0.0, 0.0, 0.0, 1.613351082010746E9, 2021-02-14 20:04:42.010
4.0, -8.586810111999512, -7.117029666900635, -7.793951511383057, -9.1141357421875, 0.08000000566244125, 0.0, 0.0, 0.0, 0.0, 0.0, 0.0, 0.0, 1.613351082011469E9, 2021-02-14 20:04:42.011
4.0, 3.8483569622039795, -2.524432420730591, 0.721800684928894, 1.6492959260940552, 0.08000000566244125, 0.0, 0.0, 0.0, 0.0, 0.0, 0.0, 0.0, 1.613351082011469E9, 2021-02-14 20:04:42.011
5.0, -7.737853050231934, -20.352535247802734, -26.29897689819336, -25.625795364379883, 0.08000000566244125, 0.0, 0.0, 0.0, 0.0, 0.0, 0.0, 0.0, 1.613351082025147E9, 2021-02-14 20:04:42.025
5.0, -3.8446171283721924, -6.757999420166016, -8.822423934936523, -8.7999849319458, 0.08000000566244125, 0.0, 0.0, 0.0, 0.0, 0.0, 0.0, 0.0, 1.613351082025147E9, 2021-02-14 20:04:42.025
6.0, -1.5183993577957153, -1.5969372987747192, 1.522139310836792, -0.45252788066864014, 0.08000000566244125, 0.0, 0.0, 0.0, 0.0, 0.0, 0.0, 0.0, 1.613351082040808E9, 2021-02-14 20:04:42.040
6.0, -8.564371109008789, -14.219099998474121, -15.206433296203613, -19.342761993408203, 0.08000000566244125, 0.0, 0.0, 0.0, 0.0, 0.0, 0.0, 0.0, 1.613351082040808E9, 2021-02-14 20:04:42.040
7.0, -8.54941177368164, -14.10316276550293, -13.38884162902832, -13.818930625915527, 0.08000000566244125, 0.0, 0.0, 0.0, 0.0, 0.0, 0.0, 0.0, 1.613351082041547E9, 2021-02-14 20:04:42.041
7.0, -5.052604675292969, -5.467733860015869, -5.579930782318115, -8.044525146484375, 0.08000000566244125, 0.0, 0.0, 0.0, 0.0, 0.0, 0.0, 0.0, 1.613351082041547E9, 2021-02-14 20:04:42.041
8.0, -4.304625034332275, -3.014359474182129, -2.4945132732391357, -5.512612342834473, 0.08000000566244125, 0.0, 0.0, 0.0, 0.0, 0.0, 0.0, 0.0, 1.613351082055123E9, 2021-02-14 20:04:42.055
8.0, -7.464840412139893, -17.49525260925293, -24.215852737426758, -30.5288028717041, 0.08000000566244125, 0.0, 0.0, 0.0, 0.0, 0.0, 0.0, 0.0, 1.613351082055123E9, 2021-02-14 20:04:42.055
9.0, -8.631689071655273, -6.0810770988464355, -10.46798038482666, -12.349149703979492, 0.08000000566244125, 0.0, 0.0, 0.0, 0.0, 0.0, 0.0, 0.0, 1.613351082070835E9, 2021-02-14 20:04:42.070
9.0, -2.4122354984283447, 3.3359906673431396, 7.072150707244873, 3.6875412464141846, 0.08000000566244125, 0.0, 0.0, 0.0, 0.0, 0.0, 0.0, 0.0, 1.613351082070835E9, 2021-02-14 20:04:42.070
10.0, -8.897221565246582, -14.540731430053711, -16.313444137573242, -24.75813865661621, 0.08000000566244125, 0.0, 1.040000081062317, 0.0, 0.0, 0.0, 0.0, 0.0, 1.613351082071787E9, 2021-02-14 20:04:42.071
10.0, -6.077337265014648, -8.459653854370117, -12.81663703918457, -11.844263076782227, 0.08000000566244125, 0.0, 1.040000081062317, 0.0, 0.0, 0.0, 0.0, 0.0, 1.613351082071787E9, 2021-02-14 20:04:42.071
11.0, -6.436367988586426, -2.939561367034912, -0.6956213712692261, -2.116783380508423, 0.08000000566244125, 0.01600000075995922, 1.040000081062317, 0.0, 0.0, 0.0, 0.0, 0.0, 1.613351082085139E9, 2021-02-14 20:04:42.085
11.0, -7.977206707000732, -10.419361114501953, -13.994705200195312, -22.005571365356445, 0.08000000566244125, 0.01600000075995922, 1.040000081062317, 0.0, 0.0, 0.0, 0.0, 0.0, 1.613351082085139E9, 2021-02-14 20:04:42.085
12.0, -5.501392841339111, -13.261685371398926, -15.348549842834473, -16.433120727539062, 0.08000000566244125, 0.01600000075995922, 1.040000081062317, 0.0, 0.0, 0.0, 0.0, 0.0, 1.613351082100822E9, 2021-02-14 20:04:42.100
12.0, -0.4562678039073944, -2.172881841659546, -8.942100524902344, -6.772958755493164, 0.08000000566244125, 0.01600000075995922, 1.040000081062317, 0.0, 0.0, 0.0, 0.0, 0.0, 1.613351082100822E9, 2021-02-14 20:04:42.100
13.0, -1.2940053939819336, -6.612143039703369, -5.9165215492248535, -4.97780704498291, 0.08000000566244125, 0.01600000075995922, 1.040000081062317, 0.0, 0.0, 0.0, 0.0, 0.0, 1.613351082101525E9, 2021-02-14 20:04:42.101
13.0, -16.80337142944336, -22.53289794921875, -25.41636085510254, -26.51589012145996, 0.08000000566244125, 0.01600000075995922, 1.040000081062317, 0.0, 0.0, 0.0, 0.0, 0.0, 1.613351082101525E9, 2021-02-14 20:04:42.101
14.0, -3.6090035438537598, -9.940653800964355, -6.44384765625, -13.848849296569824, 0.08000000566244125, 0.01600000075995922, 1.040000081062317, 0.0, 0.0, 0.0, 0.0, 0.0, 1.613351082115121E9, 2021-02-14 20:04:42.115
14.0, 2.4421546459198, 0.18325509130954742, -1.4323816299438477, -1.9073489904403687, 0.08000000566244125, 0.01600000075995922, 1.040000081062317, 0.0, 0.0, 0.0, 0.0, 0.0, 1.613351082115121E9, 2021-02-14 20:04:42.115
15.0, -8.276398658752441, -20.887340545654297, -20.924739837646484, -29.511550903320312, 0.08000000566244125, 0.01600000075995922, 1.040000081062317, 0.0, 0.0, 0.0, 0.0, 0.0, 1.613351082130779E9, 2021-02-14 20:04:42.130
15.0, -4.259746074676514, -11.260838508605957, -7.27784538269043, -12.390288352966309, 0.08000000566244125, 0.01600000075995922, 1.040000081062317, 0.0, 0.0, 0.0, 0.0, 0.0, 1.613351082130779E9, 2021-02-14 20:04:42.130
16.0, -3.8446171283721924, -4.861869812011719, -2.6515891551971436, -4.708534240722656, 0.08000000566244125, 0.01600000075995922, 1.040000081062317, 0.0, 0.0, 0.0, 0.0, 0.0, 1.613351082131515E9, 2021-02-14 20:04:42.131
16.0, -11.563770294189453, -17.18484115600586, -14.701546669006348, -12.551104545593262, 0.08000000566244125, 0.01600000075995922, 1.040000081062317, 0.0, 0.0, 0.0, 0.0, 0.0, 1.613351082131515E9, 2021-02-14 20:04:42.131
17.0, -12.51744556427002, -13.953566551208496, -16.84450912475586, -19.13332748413086, 0.08000000566244125, 0.01600000075995922, 1.040000081062317, 0.0, 0.0, 0.0, 0.0, 0.0, 1.613351082145079E9, 2021-02-14 20:04:42.145
17.0, -1.0957907438278198, -9.013158798217773, -7.4349212646484375, -4.5252790451049805, 0.08000000566244125, 0.01600000075995922, 1.040000081062317, 0.0, 0.0, 0.0, 0.0, 0.0, 1.613351082145079E9, 2021-02-14 20:04:42.145
18.0, -2.4346749782562256, -7.143208980560303, -9.996752738952637, -7.715413570404053, 0.08000000566244125, 0.01600000075995922, 1.040000081062317, 0.0, 0.0, 0.0, 0.0, 0.0, 1.613351082160858E9, 2021-02-14 20:04:42.160
18.0, -10.39692211151123, -18.175912857055664, -29.2086181640625, -25.382701873779297, 0.08000000566244125, 0.01600000075995922, 1.040000081062317, 0.0, 0.0, 0.0, 0.0, 0.0, 1.613351082160858E9, 2021-02-14 20:04:42.160
19.0, -11.477752685546875, -9.087956428527832, -0.9536744952201843, -12.547364234924316, 0.08000000566244125, 0.01600000075995922, 1.040000081062317, 0.0, 0.0, 0.0, 0.0, 0.0, 1.613351082161569E9, 2021-02-14 20:04:42.161
19.0, -4.4430012702941895, -1.0022932291030884, 5.628549575805664, 1.2341669797897339, 0.08000000566244125, 0.01600000075995922, 1.040000081062317, 0.0, 0.0, 0.0, 0.0, 0.0, 1.613351082161569E9, 2021-02-14 20:04:42.161
20.0, -13.145748138427734, -20.54701042175293, -19.42877960205078, -22.996644973754883, 0.08000000566244125, 0.01600000075995922, 1.040000081062317, 0.0, 0.0, 0.0, 0.0, 0.0, 1.613351082175168E9, 2021-02-14 20:04:42.175
20.0, -5.576190948486328, -4.7721123695373535, -8.182901382446289, -10.976606369018555, 0.08000000566244125, 0.01600000075995922, 1.040000081062317, 0.0, 0.0, 0.0, 0.0, 0.0, 1.613351082175168E9, 2021-02-14 20:04:42.175
21.0, -0.044878799468278885, -2.0195460319519043, 1.4211620092391968, 1.0509119033813477, 0.08000000566244125, 0.01600000075995922, 1.040000081062317, 0.0, 0.0, 0.0, 0.0, 0.0, 1.613351082190934E9, 2021-02-14 20:04:42.190
21.0, -6.017498970031738, -13.5421781539917, -17.158660888671875, -19.08470916748047, 0.08000000566244125, 0.01600000075995922, 1.040000081062317, 0.0, 0.0, 0.0, 0.0, 0.0, 1.613351082190934E9, 2021-02-14 20:04:42.190
22.0, -8.605509757995605, -12.203293800354004, -14.611788749694824, -16.30596351623535, 0.08000000566244125, 0.01600000075995922, 1.040000081062317, 0.0, 0.0, 0.0, 0.0, 0.0, 1.613351082191595E9, 2021-02-14 20:04:42.191
22.0, -1.3127049207687378, -7.988426208496094, -7.678014755249023, -10.856929779052734, 0.08000000566244125, 0.01600000075995922, 1.040000081062317, 0.0, 0.0, 0.0, 0.0, 0.0, 1.613351082191595E9, 2021-02-14 20:04:42.191
23.0, -2.1317429542541504, -5.392935752868652, -3.702501058578491, -0.9200153946876526, 0.08000000566244125, 0.01600000075995922, 1.040000081062317, 0.0, 0.0, 0.0, 0.0, 0.0, 1.613351082205107E9, 2021-02-14 20:04:42.205
23.0, -7.3264641761779785, -13.422500610351562, -20.64424705505371, -28.9917049407959, 0.08000000566244125, 0.01600000075995922, 1.040000081062317, 0.0, 0.0, 0.0, 0.0, 0.0, 1.613351082205107E9, 2021-02-14 20:04:42.205
24.0, -2.0868642330169678, -6.167095184326172, -10.299684524536133, -9.82471752166748, 0.08000000566244125, 0.01600000075995922, 1.040000081062317, 0.0, 0.0, 0.0, 0.0, 0.0, 1.613351082220835E9, 2021-02-14 20:04:42.220
24.0, 4.981546878814697, 0.5796844959259033, -0.7405002117156982, -5.568710803985596, 0.08000000566244125, 0.01600000075995922, 1.040000081062317, 0.0, 0.0, 0.0, 0.0, 0.0, 1.613351082220835E9, 2021-02-14 20:04:42.220
25.0, -12.880215644836426, -18.542423248291016, -19.114627838134766, -26.590688705444336, 0.08000000566244125, 0.01600000075995922, 1.040000081062317, 0.0, 0.0, 0.0, 0.0, 0.0, 1.613351082221574E9, 2021-02-14 20:04:42.221
25.0, -7.539638519287109, -7.726633071899414, -8.0370454788208, -13.482338905334473, 0.08000000566244125, 0.01600000075995922, 1.040000081062317, 0.0, 0.0, 0.0, 0.0, 0.0, 1.613351082221574E9, 2021-02-14 20:04:42.221
26.0, -0.3141515851020813, 1.3650634288787842, 3.9530742168426514, -1.982146978378296, 0.08000000566244125, 0.01600000075995922, 1.040000081062317, 0.0, 0.0, 0.0, 0.0, 0.0, 1.613351082251448E9, 2021-02-14 20:04:42.251
26.0, -9.263731956481934, -12.640861511230469, -10.726033210754395, -12.300531387329102, 0.08000000566244125, 0.01600000075995922, 1.040000081062317, 0.0, 0.0, 0.0, 0.0, 0.0, 1.613351082251448E9, 2021-02-14 20:04:42.251
27.0, -6.623363018035889, -13.201847076416016, -17.83184242248535, -14.09194278717041, 0.08000000566244125, 0.01600000075995922, 1.040000081062317, 0.0, 0.0, 0.0, 0.0, 0.0, 1.613351082252187E9, 2021-02-14 20:04:42.252
27.0, 1.1743285655975342, -4.618776321411133, -6.873936176300049, -4.876829624176025, 0.08000000566244125, 0.01600000075995922, 1.040000081062317, 0.0, 0.0, 0.0, 0.0, 0.0, 1.613351082252187E9, 2021-02-14 20:04:42.252
28.0, -0.7816390991210938, -5.460253715515137, -3.152735710144043, -3.0667178630828857, 0.08000000566244125, 0.01600000075995922, 1.040000081062317, 0.0, 0.0, 0.0, 0.0, 0.0, 1.61335108225294E9, 2021-02-14 20:04:42.252
28.0, -11.698407173156738, -19.858869552612305, -20.958398818969727, -27.955751419067383, 0.08000000566244125, 0.01600000075995922, 1.040000081062317, 0.0, 0.0, 0.0, 0.0, 0.0, 1.61335108225294E9, 2021-02-14 20:04:42.252
29.0, -5.2358598709106445, -8.878522872924805, -11.574990272521973, -4.409341812133789, 0.08000000566244125, 0.01600000075995922, 1.040000081062317, 0.0, 0.0, 0.0, 0.0, 0.0, 1.613351082265104E9, 2021-02-14 20:04:42.265
29.0, -4.18120813369751, -2.8161447048187256, -3.586564064025879, -1.1219699382781982, 0.08000000566244125, 0.01600000075995922, 1.040000081062317, 0.0, 0.0, 0.0, 0.0, 0.0, 1.613351082265104E9, 2021-02-14 20:04:42.265
30.0, -13.265424728393555, -14.118122100830078, -23.5277099609375, -23.022823333740234, 0.08000000566244125, 0.01600000075995922, 1.040000081062317, 0.0, 0.0, 0.0, 0.0, 0.0, 1.613351082280776E9, 2021-02-14 20:04:42.280
30.0, -2.5206925868988037, -11.522631645202637, -9.469427108764648, -13.115829467773438, 0.08000000566244125, 0.01600000075995922, 1.040000081062317, 0.0, 0.0, 0.0, 0.0, 0.0, 1.613351082280776E9, 2021-02-14 20:04:42.280
31.0, -0.508626401424408, -5.512612342834473, -5.3181376457214355, -11.17108154296875, 0.08000000566244125, 0.01600000075995922, 1.040000081062317, 0.0, 0.0, 0.0, 0.0, 0.0, 1.613351082281535E9, 2021-02-14 20:04:42.281
31.0, -14.3051176071167, -18.994951248168945, -11.971419334411621, -25.26676368713379, 0.08000000566244125, 0.01600000075995922, 1.040000081062317, 0.0, 0.0, 0.0, 0.0, 0.0, 1.613351082281535E9, 2021-02-14 20:04:42.281
32.0, -8.900961875915527, -15.958152770996094, -16.126447677612305, -21.30994987487793, 0.08000000566244125, 0.01600000075995922, 1.040000081062317, 0.0, 0.0, 0.0, 0.0, 0.0, 1.613351082295125E9, 2021-02-14 20:04:42.295
32.0, -1.4996998310089111, -7.401261806488037, -2.640369415283203, -3.6613621711730957, 0.08000000566244125, 0.01600000075995922, 1.040000081062317, 0.0, 0.0, 0.0, 0.0, 0.0, 1.613351082295125E9, 2021-02-14 20:04:42.295
33.0, -5.119923114776611, -0.8040785193443298, -4.102670192718506, -3.1190764904022217, 0.08000000566244125, 0.01600000075995922, 1.040000081062317, 0.0, 0.0, 0.0, 0.0, 0.0, 1.613351082310785E9, 2021-02-14 20:04:42.310
33.0, -9.611542701721191, -19.481138229370117, -22.15142822265625, -22.046710968017578, 0.08000000566244125, 0.01600000075995922, 1.040000081062317, 0.0, 0.0, 0.0, 0.0, 0.0, 1.613351082310785E9, 2021-02-14 20:04:42.310
34.0, -11.242138862609863, -12.513705253601074, -11.80312442779541, -13.00737190246582, 0.08000000566244125, 0.01600000075995922, 1.040000081062317, 0.0, 0.0, 0.0, 0.0, 0.0, 1.613351082311493E9, 2021-02-14 20:04:42.311
34.0, -3.0891573429107666, 0.4974066913127899, 1.0546517372131348, 2.3037784099578857, 0.08000000566244125, 0.01600000075995922, 1.040000081062317, 0.0, 0.0, 0.0, 0.0, 0.0, 1.613351082311493E9, 2021-02-14 20:04:42.311
35.0, -12.925094604492188, -19.57089614868164, -21.48572540283203, -25.360261917114258, 0.08000000566244125, 0.01600000075995922, 1.040000081062317, 0.0, 0.0, 0.0, 0.0, 0.0, 1.613351082325134E9, 2021-02-14 20:04:42.325
35.0, -7.995905876159668, -14.477152824401855, -8.631689071655273, -10.333343505859375, 0.08000000566244125, 0.01600000075995922, 1.040000081062317, 0.0, 0.0, 0.0, 0.0, 0.0, 1.613351082325134E9, 2021-02-14 20:04:42.325
36.0, -0.7292804718017578, 0.5348057150840759, -3.964293956756592, -2.3486571311950684, 0.08000000566244125, 0.01600000075995922, 1.040000081062317, 0.0, 0.0, 0.0, 0.0, 0.0, 1.613351082340853E9, 2021-02-14 20:04:42.340
36.0, -7.902408599853516, -8.283878326416016, -14.798784255981445, -14.076983451843262, 0.08000000566244125, 0.01600000075995922, 1.040000081062317, 0.0, 0.0, 0.0, 0.0, 0.0, 1.613351082340853E9, 2021-02-14 20:04:42.340
37.0, -5.572451114654541, -14.72398567199707, -16.429380416870117, -21.433366775512695, 0.08000000566244125, 0.01600000075995922, 1.040000081062317, 0.0, 0.0, 0.0, 0.0, 0.0, 1.613351082341535E9, 2021-02-14 20:04:42.341
37.0, 0.6844016909599304, -2.8236243724823, -5.901562213897705, -2.285078763961792, 0.08000000566244125, 0.01600000075995922, 1.040000081062317, 0.0, 0.0, 0.0, 0.0, 0.0, 1.613351082341535E9, 2021-02-14 20:04:42.341
38.0, -1.0434321165084839, -3.0928971767425537, 0.3104116916656494, 0.5871642827987671, 0.08000000566244125, 0.01600000075995922, 1.040000081062317, 0.0, 0.0, 0.0, 0.0, 0.0, 1.613351082371551E9, 2021-02-14 20:04:42.371
38.0, -10.142608642578125, -13.5421781539917, -19.8887882232666, -25.173267364501953, 0.08000000566244125, 0.01600000075995922, 1.040000081062317, 0.0, 0.0, 0.0, 0.0, 0.0, 1.613351082371551E9, 2021-02-14 20:04:42.371
39.0, -7.330204010009766, -9.203893661499023, -11.21969985961914, -7.072150707244873, 0.08000000566244125, 0.01600000075995922, 1.040000081062317, 0.0, 0.0, 0.0, 0.0, 0.0, 1.613351082372289E9, 2021-02-14 20:04:42.372
39.0, -4.293405055999756, 0.5385456085205078, -2.77500581741333, -0.4749673008918762, 0.08000000566244125, 0.01600000075995922, 1.040000081062317, 0.0, 0.0, 0.0, 0.0, 0.0, 1.613351082372289E9, 2021-02-14 20:04:42.372
40.0, -13.156968116760254, -15.894575119018555, -23.164939880371094, -23.13128089904785, 0.08000000566244125, 0.01600000075995922, 1.040000081062317, 0.0, 0.0, 0.0, 0.0, 0.0, 1.613351082373018E9, 2021-02-14 20:04:42.373
40.0, -4.929188251495361, -10.101469993591309, -6.683201313018799, -11.141161918640137, 0.08000000566244125, 0.01600000075995922, 1.040000081062317, 0.0, 0.0, 0.0, 0.0, 0.0, 1.613351082373018E9, 2021-02-14 20:04:42.373
41.0, 0.5684648156166077, -3.070457935333252, -4.0091729164123535, -4.779592037200928, 0.08000000566244125, 0.01600000075995922, 1.040000081062317, 0.0, 0.0, 0.0, 0.0, 0.0, 1.613351082385078E9, 2021-02-14 20:04:42.385
41.0, -6.806617736816406, -13.889988899230957, -15.0680570602417, -17.49525260925293, 0.08000000566244125, 0.01600000075995922, 1.040000081062317, 0.0, 0.0, 0.0, 0.0, 0.0, 1.613351082385078E9, 2021-02-14 20:04:42.385
42.0, -9.12535572052002, -21.257591247558594, -16.792150497436523, -19.61577606201172, 0.08000000566244125, 0.01600000075995922, 1.040000081062317, 0.0, 0.0, 0.0, 0.0, 0.0, 1.613351082400584E9, 2021-02-14 20:04:42.400
42.0, -7.77899169921875, -10.161308288574219, -8.560630798339844, -8.81494426727295, 0.08000000566244125, 0.01600000075995922, 1.040000081062317, 0.0, 0.0, 0.0, 0.0, 0.0, 1.613351082400584E9, 2021-02-14 20:04:42.400
43.0, -0.28423240780830383, -2.206541061401367, -3.0293190479278564, -2.6291496753692627, 0.08000000566244125, 0.01600000075995922, 1.040000081062317, 0.0, 0.0, 0.0, 0.0, 0.0, 1.613351082415858E9, 2021-02-14 20:04:42.415
43.0, -14.914721488952637, -17.779483795166016, -20.876121520996094, -26.01474380493164, 0.08000000566244125, 0.01600000075995922, 1.040000081062317, 0.0, 0.0, 0.0, 0.0, 0.0, 1.613351082415858E9, 2021-02-14 20:04:42.415
44.0, -4.783331871032715, -5.389195919036865, -7.629395961761475, -11.440354347229004, 0.08000000566244125, 0.01600000075995922, 1.040000081062317, 0.0, 0.0, 0.0, 0.0, 0.0, 1.613351082416526E9, 2021-02-14 20:04:42.416
44.0, -3.100377082824707, -0.34407079219818115, -2.3561370372772217, 1.4249018430709839, 0.08000000566244125, 0.01600000075995922, 1.040000081062317, 0.0, 0.0, 0.0, 0.0, 0.0, 1.613351082416526E9, 2021-02-14 20:04:42.416
45.0, -7.85004997253418, -15.920754432678223, -21.003278732299805, -23.710966110229492, 0.08000000566244125, 0.01600000075995922, 1.040000081062317, 0.0, 0.0, 0.0, 0.0, 0.0, 1.61335108243086E9, 2021-02-14 20:04:42.430
45.0, -4.491620063781738, -12.278091430664062, -14.439753532409668, -19.271703720092773, 0.08000000566244125, 0.01600000075995922, 1.040000081062317, 0.0, 0.0, 0.0, 0.0, 0.0, 1.61335108243086E9, 2021-02-14 20:04:42.430
46.0, -0.9536744952201843, -5.987579822540283, -0.3926894962787628, -4.450480937957764, 0.08000000566244125, 0.01600000075995922, 1.040000081062317, 0.0, 0.0, 0.0, 0.0, 0.0, 1.613351082431612E9, 2021-02-14 20:04:42.431
46.0, -1.9896267652511597, -8.897221565246582, -11.440354347229004, -13.153227806091309, 0.08000000566244125, 0.01600000075995922, 1.040000081062317, 0.0, 0.0, 0.0, 0.0, 0.0, 1.613351082431612E9, 2021-02-14 20:04:42.431
47.0, -7.165648460388184, -9.596583366394043, -13.104609489440918, -16.339622497558594, 0.08000000566244125, 0.01600000075995922, 1.040000081062317, 0.0, 0.0, 0.0, 0.0, 0.0, 1.613351082445147E9, 2021-02-14 20:04:42.445
47.0, -3.048018455505371, -4.024132251739502, -8.22029972076416, -10.65123462677002, 0.08000000566244125, 0.01600000075995922, 1.040000081062317, 0.0, 0.0, 0.0, 0.0, 0.0, 1.613351082445147E9, 2021-02-14 20:04:42.445
48.0, -1.0546517372131348, -1.4174220561981201, -1.047171950340271, -5.8903422355651855, 0.08000000566244125, 0.01600000075995922, 1.040000081062317, 0.0, 0.0, 0.0, 0.0, 0.0, 1.613351082460472E9, 2021-02-14 20:04:42.460
48.0, -12.135974884033203, -16.80337142944336, -19.024871826171875, -27.002077102661133, 0.08000000566244125, 0.01600000075995922, 1.040000081062317, 0.0, 0.0, 0.0, 0.0, 0.0, 1.613351082460472E9, 2021-02-14 20:04:42.460
49.0, -4.742193222045898, -8.859823226928711, -8.560630798339844, -9.656421661376953, 0.08000000566244125, 0.01600000075995922, 1.040000081062317, 0.0, 0.0, 0.0, 0.0, 0.0, 1.613351082475785E9, 2021-02-14 20:04:42.475
49.0, -3.5491650104522705, -0.9087957143783569, -6.290511608123779, -1.413682222366333, 0.08000000566244125, 0.01600000075995922, 1.040000081062317, 0.0, 0.0, 0.0, 0.0, 0.0, 1.613351082475785E9, 2021-02-14 20:04:42.475
50.0, -12.162154197692871, -17.323217391967773, -20.57318878173828, -25.41636085510254, 0.08000000566244125, 0.01600000075995922, 1.040000081062317, 0.0, 0.0, 0.0, 0.0, 0.0, 1.613351082476523E9, 2021-02-14 20:04:42.476
50.0, -7.644355297088623, -10.239846229553223, -11.02896499633789, -9.544224739074707, 0.08000000566244125, 0.01600000075995922, 1.040000081062317, 0.0, 0.0, 0.0, 0.0, 0.0, 1.613351082476523E9, 2021-02-14 20:04:42.476
51.0, -2.7039477825164795, -2.5468719005584717, 0.13463640213012695, -3.7436399459838867, 0.08000000566244125, 0.01600000075995922, 1.040000081062317, 0.0, 0.0, 0.0, 0.0, 0.0, 1.613351082490879E9, 2021-02-14 20:04:42.490
51.0, -5.80058479309082, -8.986979484558105, -17.581270217895508, -18.55364418029785, 0.08000000566244125, 0.01600000075995922, 1.040000081062317, 0.0, 0.0, 0.0, 0.0, 0.0, 1.613351082490879E9, 2021-02-14 20:04:42.490
52.0, -5.972620010375977, -15.70009994506836, -12.74557876586914, -17.20353889465332, 0.08000000566244125, 0.01600000075995922, 1.040000081062317, 0.0, 0.0, 0.0, 0.0, 0.0, 1.613351082491561E9, 2021-02-14 20:04:42.491
52.0, -1.8101115226745605, -4.293405055999756, -3.6576220989227295, -2.8685033321380615, 0.08000000566244125, 0.01600000075995922, 1.040000081062317, 0.0, 0.0, 0.0, 0.0, 0.0, 1.613351082491561E9, 2021-02-14 20:04:42.491
53.0, -3.186394691467285, -3.81095814704895, -3.0928971767425537, -7.173128128051758, 0.08000000566244125, 0.01600000075995922, 1.040000081062317, 0.0, 0.0, 0.0, 0.0, 0.0, 1.613351082505176E9, 2021-02-14 20:04:42.505
53.0, -8.665348052978516, -13.534697532653809, -17.540130615234375, -28.68503189086914, 0.08000000566244125, 0.01600000075995922, 1.040000081062317, 0.0, 0.0, 0.0, 0.0, 0.0, 1.613351082505176E9, 2021-02-14 20:04:42.505
54.0, -5.306918144226074, -8.713967323303223, -11.6759672164917, -12.240692138671875, 0.08000000566244125, 0.01600000075995922, 1.040000081062317, 0.0, 0.0, 0.0, 0.0, 0.0, 1.613351082520824E9, 2021-02-14 20:04:42.520
54.0, -1.8549903631210327, -6.084817409515381, -1.682955026626587, -3.9306347370147705, 0.08000000566244125, 0.01600000075995922, 1.040000081062317, 0.0, 0.0, 0.0, 0.0, 0.0, 1.613351082520824E9, 2021-02-14 20:04:42.520
55.0, -12.270611763000488, -22.24866485595703, -21.665241241455078, -28.38957977294922, 0.08000000566244125, 0.01600000075995922, 1.040000081062317, 0.0, 0.0, 0.0, 0.0, 0.0, 1.613351082521552E9, 2021-02-14 20:04:42.521
55.0, -4.903008937835693, -9.06551742553711, -5.583670616149902, -4.618776321411133, 0.08000000566244125, 0.01600000075995922, 1.040000081062317, 0.0, 0.0, 0.0, 0.0, 0.0, 1.613351082521552E9, 2021-02-14 20:04:42.521
56.0, 0.2505733072757721, 2.3299577236175537, -1.4099422693252563, -0.8265178799629211, 0.08000000566244125, 0.01600000075995922, 1.040000081062317, 0.0, 0.0, 0.0, 0.0, 0.0, 1.613351082551505E9, 2021-02-14 20:04:42.551
56.0, -4.345763683319092, -11.631089210510254, -18.647140502929688, -16.616374969482422, 0.08000000566244125, 0.01600000075995922, 1.040000081062317, 0.0, 0.0, 0.0, 0.0, 0.0, 1.613351082551505E9, 2021-02-14 20:04:42.551
57.0, -9.099176406860352, -13.50851821899414, -16.840768814086914, -22.633874893188477, 0.08000000566244125, 0.01600000075995922, 1.040000081062317, 0.0, 0.0, 0.0, 0.0, 0.0, 1.61335108255222E9, 2021-02-14 20:04:42.552
57.0, -7.685494422912598, -10.565217018127441, -10.052850723266602, -5.340577125549316, 0.08000000566244125, 0.01600000075995922, 1.040000081062317, 0.0, 0.0, 0.0, 0.0, 0.0, 1.61335108255222E9, 2021-02-14 20:04:42.552
58.0, -6.376529216766357, -6.926294803619385, -2.1541824340820312, -6.335390567779541, 0.08000000566244125, 0.01600000075995922, 1.040000081062317, 0.0, 0.0, 0.0, 0.0, 0.0, 1.61335108255294E9, 2021-02-14 20:04:42.552
58.0, -12.640861511230469, -23.381855010986328, -22.020530700683594, -24.380407333374023, 0.08000000566244125, 0.01600000075995922, 1.040000081062317, 0.0, 0.0, 0.0, 0.0, 0.0, 1.61335108255294E9, 2021-02-14 20:04:42.552
59.0, 0.25805309414863586, -9.50682544708252, -8.788764953613281, -9.319830894470215, 0.08000000566244125, 0.01600000075995922, 1.040000081062317, 0.0, 0.0, 0.0, 0.0, 0.0, 1.613351082565174E9, 2021-02-14 20:04:42.565
59.0, -0.12341669946908951, -1.3538438081741333, 0.49366679787635803, -1.6380761861801147, 0.08000000566244125, 0.01600000075995922, 1.040000081062317, 0.0, 0.0, 0.0, 0.0, 0.0, 1.613351082565174E9, 2021-02-14 20:04:42.565
60.0, -7.43118143081665, -19.181947708129883, -23.46413230895996, -24.354228973388672, 0.08000000566244125, 0.01600000075995922, 1.040000081062317, 0.0, 0.0, 0.0, 0.0, 0.0, 1.613351082580797E9, 2021-02-14 20:04:42.580
60.0, -8.407295227050781, -12.655821800231934, -6.630842685699463, -14.99699878692627, 0.08000000566244125, 0.01600000075995922, 1.040000081062317, 0.0, 0.0, 0.0, 0.0, 0.0, 1.613351082580797E9, 2021-02-14 20:04:42.580
61.0, -1.1930280923843384, -0.5609849691390991, -1.2416467666625977, 2.4645941257476807, 0.08000000566244125, 0.01600000075995922, 1.040000081062317, 0.0, 0.0, 0.0, 0.0, 0.0, 1.613351082581597E9, 2021-02-14 20:04:42.581
61.0, -9.278692245483398, -13.130788803100586, -11.859222412109375, -15.834736824035645, 0.08000000566244125, 0.01600000075995922, 1.040000081062317, 0.0, 0.0, 0.0, 0.0, 0.0, 1.613351082581597E9, 2021-02-14 20:04:42.581
62.0, -9.772358894348145, -13.755352020263672, -16.08905029296875, -15.468226432800293, 0.08000000566244125, 0.01600000075995922, 1.040000081062317, 0.0, 0.0, 0.0, 0.0, 0.0, 1.613351082595126E9, 2021-02-14 20:04:42.595
62.0, -5.639769077301025, -6.376529216766357, -8.953320503234863, -4.095190525054932, 0.08000000566244125, 0.01600000075995922, 1.040000081062317, 0.0, 0.0, 0.0, 0.0, 0.0, 1.613351082595126E9, 2021-02-14 20:04:42.595
63.0, -7.782732009887695, -7.449880599975586, -2.8348441123962402, -6.881415843963623, 0.08000000566244125, 0.01600000075995922, 1.040000081062317, 0.0, 0.0, 0.0, 0.0, 0.0, 1.61335108261085E9, 2021-02-14 20:04:42.610
63.0, -7.464840412139893, -16.122709274291992, -18.916414260864258, -23.191120147705078, 0.08000000566244125, 0.01600000075995922, 1.040000081062317, 0.0, 0.0, 0.0, 0.0, 0.0, 1.61335108261085E9, 2021-02-14 20:04:42.610
64.0, -1.3800231218338013, -7.835090637207031, -5.520092487335205, -10.636275291442871, 0.08000000566244125, 0.01600000075995922, 1.040000081062317, 0.0, 0.0, 0.0, 0.0, 0.0, 1.613351082611585E9, 2021-02-14 20:04:42.611
64.0, 1.656775712966919, 4.0353522300720215, -2.9807002544403076, -4.304625034332275, 0.08000000566244125, 0.01600000075995922, 1.040000081062317, 0.0, 0.0, 0.0, 0.0, 0.0, 1.613351082611585E9, 2021-02-14 20:04:42.611
65.0, -10.535298347473145, -21.410926818847656, -19.933666229248047, -23.112581253051758, 0.08000000566244125, 0.01600000075995922, 1.040000081062317, 0.0, 0.0, 0.0, 0.0, 0.0, 1.613351082625094E9, 2021-02-14 20:04:42.625
65.0, -6.099776744842529, -12.147194862365723, -8.579330444335938, -18.344209671020508, 0.08000000566244125, 0.01600000075995922, 1.040000081062317, 0.0, 0.0, 0.0, 0.0, 0.0, 1.613351082625094E9, 2021-02-14 20:04:42.625
66.0, -0.18325509130954742, 1.4510811567306519, 2.0719046592712402, -7.827610492706299, 0.08000000566244125, 0.01600000075995922, 1.040000081062317, 0.0, 0.0, 0.0, 0.0, 0.0, 1.613351082640816E9, 2021-02-14 20:04:42.640
66.0, -6.70564079284668, -13.673073768615723, -13.557137489318848, -13.123309135437012, 0.08000000566244125, 0.01600000075995922, 1.040000081062317, 0.0, 0.0, 0.0, 0.0, 0.0, 1.613351082640816E9, 2021-02-14 20:04:42.640
67.0, -6.9449944496154785, -13.860069274902344, -18.097375869750977, -21.051897048950195, 0.08000000566244125, 0.01600000075995922, 1.040000081062317, 0.0, 0.0, 0.0, 0.0, 0.0, 1.613351082641553E9, 2021-02-14 20:04:42.641
67.0, -5.980100154876709, -3.8184378147125244, -9.394628524780273, -10.082770347595215, 0.08000000566244125, 0.01600000075995922, 1.040000081062317, 0.0, 0.0, 0.0, 0.0, 0.0, 1.613351082641553E9, 2021-02-14 20:04:42.641
68.0, -2.8198845386505127, -1.1593689918518066, -2.1130435466766357, -3.590303897857666, 0.08000000566244125, 0.01600000075995922, 1.040000081062317, 0.0, 0.0, 0.0, 0.0, 0.0, 1.613351082655097E9, 2021-02-14 20:04:42.655
68.0, -10.767171859741211, -19.791549682617188, -21.616621017456055, -23.138761520385742, 0.08000000566244125, 0.01600000075995922, 1.040000081062317, 0.0, 0.0, 0.0, 0.0, 0.0, 1.613351082655097E9, 2021-02-14 20:04:42.655
69.0, -1.4249018430709839, -6.327910900115967, -10.557737350463867, -6.316690921783447, 0.08000000566244125, 0.01600000075995922, 1.040000081062317, 0.0, 0.0, 0.0, 0.0, 0.0, 1.613351082702896E9, 2021-02-14 20:04:42.702
69.0, -3.242493152618408, 1.1144901514053345, 0.9087957143783569, -0.5983840227127075, 0.08000000566244125, 0.01600000075995922, 1.040000081062317, 0.0, 0.0, 0.0, 0.0, 0.0, 1.613351082702896E9, 2021-02-14 20:04:42.702
70.0, -5.662208557128906, -18.725679397583008, -18.557384490966797, -20.423593521118164, 0.08000000566244125, 0.01600000075995922, 1.040000081062317, 0.0, 0.0, 0.0, 0.0, 0.0, 1.613351082703609E9, 2021-02-14 20:04:42.703
70.0, -4.641215801239014, -8.22778034210205, -8.710227012634277, -12.405247688293457, 0.08000000566244125, 0.01600000075995922, 1.040000081062317, 0.0, 0.0, 0.0, 0.0, 0.0, 1.613351082703609E9, 2021-02-14 20:04:42.703
71.0, -7.0796308517456055, -6.604663372039795, -2.6216697692871094, -1.92978835105896, 0.08000000566244125, 0.01600000075995922, 1.040000081062317, 0.0, 0.0, 0.0, 0.0, 0.0, 1.613351082704368E9, 2021-02-14 20:04:42.704
71.0, -10.389442443847656, -13.897468566894531, -13.545917510986328, -15.81977653503418, 0.08000000566244125, 0.01600000075995922, 1.040000081062317, 0.0, 0.0, 0.0, 0.0, 0.0, 1.613351082704368E9, 2021-02-14 20:04:42.704
72.0, -8.085663795471191, -14.858622550964355, -16.6612548828125, -18.273151397705078, 0.08000000566244125, 0.01600000075995922, 1.040000081062317, 0.0, 0.0, 0.0, 0.0, 0.0, 1.613351082705065E9, 2021-02-14 20:04:42.705
72.0, -5.703347206115723, -10.180007934570312, -11.98263931274414, -8.526971817016602, 0.08000000566244125, 0.01600000075995922, 1.040000081062317, 0.0, 0.0, 0.0, 0.0, 0.0, 1.613351082705065E9, 2021-02-14 20:04:42.705
73.0, -3.6351828575134277, -5.830503940582275, -6.806617736816406, -1.9410080909729004, 0.08000000566244125, 0.01600000075995922, 1.040000081062317, 0.0, 0.0, 0.0, 0.0, 0.0, 1.613351082715824E9, 2021-02-14 20:04:42.715
73.0, -8.986979484558105, -21.354827880859375, -21.672719955444336, -26.99085807800293, 0.08000000566244125, 0.01600000075995922, 1.040000081062317, 0.0, 0.0, 0.0, 0.0, 0.0, 1.613351082715824E9, 2021-02-14 20:04:42.715
74.0, -0.7068411111831665, -9.140315055847168, -12.93631362915039, -11.728325843811035, 0.08000000566244125, 0.01600000075995922, 1.040000081062317, 0.0, 0.0, 0.0, 0.0, 0.0, 1.61335108271664E9, 2021-02-14 20:04:42.716
74.0, 2.804924964904785, 3.3023316860198975, 2.1541824340820312, -5.553751468658447, 0.08000000566244125, 0.01600000075995922, 1.040000081062317, 0.0, 0.0, 0.0, 0.0, 0.0, 1.61335108271664E9, 2021-02-14 20:04:42.716
75.0, -12.573543548583984, -15.62904167175293, -19.44373893737793, -27.368587493896484, 0.08000000566244125, 0.01600000075995922, 1.040000081062317, 0.0, 0.0, 0.0, 0.0, 0.0, 1.613351082730816E9, 2021-02-14 20:04:42.730
75.0, -7.296545028686523, -7.8163909912109375, -10.714813232421875, -12.599722862243652, 0.08000000566244125, 0.01600000075995922, 1.040000081062317, 0.0, 0.0, 0.0, 0.0, 0.0, 1.613351082730816E9, 2021-02-14 20:04:42.730
76.0, -0.23561370372772217, -0.34033089876174927, -2.1018238067626953, -1.6754751205444336, 0.08000000566244125, 0.01600000075995922, 1.040000081062317, 0.0, 0.0, 0.0, 0.0, 0.0, 1.613351082731559E9, 2021-02-14 20:04:42.731
76.0, -4.547718524932861, -8.437213897705078, -9.787318229675293, -19.383901596069336, 0.08000000566244125, 0.01600000075995922, 1.040000081062317, 0.0, 0.0, 0.0, 0.0, 0.0, 1.613351082731559E9, 2021-02-14 20:04:42.731
77.0, -12.910134315490723, -14.301377296447754, -17.476552963256836, -19.410079956054688, 0.08000000566244125, 0.01600000075995922, 1.040000081062317, 0.0, 0.0, 0.0, 0.0, 0.0, 1.613351082761458E9, 2021-02-14 20:04:42.761
77.0, -5.329357624053955, -8.676568031311035, -5.980100154876709, -6.19327449798584, 0.08000000566244125, 0.01600000075995922, 1.040000081062317, 0.0, 0.0, 0.0, 0.0, 0.0, 1.613351082761458E9, 2021-02-14 20:04:42.761
78.0, -3.7885186672210693, -2.7076876163482666, 0.3552905023097992, -4.65617561340332, 0.08000000566244125, 0.01600000075995922, 1.040000081062317, 0.0, 0.0, 0.0, 0.0, 0.0, 1.613351082762203E9, 2021-02-14 20:04:42.762
78.0, -10.172528266906738, -18.30681037902832, -21.515644073486328, -25.08350944519043, 0.08000000566244125, 0.01600000075995922, 1.040000081062317, 0.0, 0.0, 0.0, 0.0, 0.0, 1.613351082762203E9, 2021-02-14 20:04:42.762
79.0, -7.52841854095459, -9.604063034057617, -10.01919174194336, -7.584517002105713, 0.08000000566244125, 0.01600000075995922, 1.040000081062317, 0.0, 0.0, 0.0, 0.0, 0.0, 1.613351082763012E9, 2021-02-14 20:04:42.763
79.0, -3.7623393535614014, -3.5940439701080322, -0.8190380930900574, 5.9165215492248535, 0.08000000566244125, 0.01600000075995922, 1.040000081062317, 0.0, 0.0, 0.0, 0.0, 0.0, 1.613351082763012E9, 2021-02-14 20:04:42.763
80.0, -7.958507061004639, -16.268564224243164, -27.196552276611328, -25.48741912841797, 0.08000000566244125, 0.01600000075995922, 1.040000081062317, 0.0, 0.0, 0.0, 0.0, 0.0, 1.613351082775074E9, 2021-02-14 20:04:42.775
80.0, -10.71855354309082, -6.623363018035889, -12.547364234924316, -12.794198036193848, 0.08000000566244125, 0.01600000075995922, 1.040000081062317, 0.0, 0.0, 0.0, 0.0, 0.0, 1.613351082775074E9, 2021-02-14 20:04:42.775
81.0, 1.4174220561981201, -1.7839323282241821, 3.235013484954834, -6.664501667022705, 0.08000000566244125, 0.01600000075995922, 1.040000081062317, 0.0, 0.0, 0.0, 0.0, 0.0, 1.613351082822986E9, 2021-02-14 20:04:42.822
81.0, -7.936067581176758, -14.914721488952637, -8.392335891723633, -16.474258422851562, 0.08000000566244125, 0.01600000075995922, 1.040000081062317, 0.0, 0.0, 0.0, 0.0, 0.0, 1.613351082822986E9, 2021-02-14 20:04:42.822
82.0, -7.176867961883545, -12.910134315490723, -13.501038551330566, -21.998090744018555, 0.08000000566244125, 0.01600000075995922, 1.040000081062317, 0.0, 0.0, 0.0, 0.0, 0.0, 1.613351082823686E9, 2021-02-14 20:04:42.823
82.0, -6.623363018035889, -12.24443244934082, -7.042231559753418, -11.92280101776123, 0.08000000566244125, 0.01600000075995922, 1.040000081062317, 0.0, 0.0, 0.0, 0.0, 0.0, 1.613351082823686E9, 2021-02-14 20:04:42.823
83.0, -4.5252790451049805, -1.768972635269165, -2.0532050132751465, -7.487279891967773, 0.08000000566244125, 0.01600000075995922, 1.040000081062317, 0.0, 0.0, 0.0, 0.0, 0.0, 1.61335108282433E9, 2021-02-14 20:04:42.824
83.0, -13.033551216125488, -20.29269790649414, -23.019084930419922, -25.06106948852539, 0.08000000566244125, 0.01600000075995922, 1.040000081062317, 0.0, 0.0, 0.0, 0.0, 0.0, 1.61335108282433E9, 2021-02-14 20:04:42.824
84.0, -3.3846094608306885, -5.864162921905518, -8.115582466125488, -9.368449211120605, 0.08000000566244125, 0.01600000075995922, 1.040000081062317, 0.0, 0.0, 0.0, 0.0, 0.0, 1.613351082825089E9, 2021-02-14 20:04:42.825
84.0, -0.5535051822662354, -0.18325509130954742, 0.7367603182792664, 1.2229472398757935, 0.08000000566244125, 0.01600000075995922, 1.040000081062317, 0.0, 0.0, 0.0, 0.0, 0.0, 1.613351082825089E9, 2021-02-14 20:04:42.825
85.0, -8.523232460021973, -18.486326217651367, -25.80156898498535, -24.810495376586914, 0.08000000566244125, 0.01600000075995922, 1.040000081062317, 0.0, 0.0, 0.0, 0.0, 0.0, 1.613351082835798E9, 2021-02-14 20:04:42.835
85.0, -5.785625457763672, -12.809157371520996, -11.833043098449707, -13.755352020263672, 0.08000000566244125, 0.01600000075995922, 1.040000081062317, 0.0, 0.0, 0.0, 0.0, 0.0, 1.613351082835798E9, 2021-02-14 20:04:42.835
86.0, -4.484139919281006, -2.0532050132751465, 3.395829200744629, -6.155875205993652, 0.08000000566244125, 0.01600000075995922, 1.040000081062317, 0.0, 0.0, 0.0, 0.0, 0.0, 1.613351082836524E9, 2021-02-14 20:04:42.836
86.0, -5.695867538452148, -7.333943843841553, -10.378222465515137, -9.970573425292969, 0.08000000566244125, 0.01600000075995922, 1.040000081062317, 0.0, 0.0, 0.0, 0.0, 0.0, 1.613351082836524E9, 2021-02-14 20:04:42.836
87.0, -11.556290626525879, -12.513705253601074, -16.623855590820312, -17.065162658691406, 0.08000000566244125, 0.01600000075995922, 1.040000081062317, 0.0, 0.0, 0.0, 0.0, 0.0, 1.61335108286717E9, 2021-02-14 20:04:42.867
87.0, -2.9993996620178223, -6.832797050476074, -6.357830047607422, -11.930280685424805, 0.08000000566244125, 0.01600000075995922, 1.040000081062317, 0.0, 0.0, 0.0, 0.0, 0.0, 1.61335108286717E9, 2021-02-14 20:04:42.867
88.0, -3.3285109996795654, -0.5647249221801758, -1.1743285655975342, -0.5497652888298035, 0.08000000566244125, 0.01600000075995922, 1.040000081062317, 0.0, 0.0, 0.0, 0.0, 0.0, 1.613351082867924E9, 2021-02-14 20:04:42.867
88.0, -11.010265350341797, -25.289203643798828, -22.633874893188477, -27.544363021850586, 0.08000000566244125, 0.01600000075995922, 1.040000081062317, 0.0, 0.0, 0.0, 0.0, 0.0, 1.613351082867924E9, 2021-02-14 20:04:42.867
89.0, -4.9890265464782715, -8.455913543701172, -6.716860294342041, -14.892281532287598, 0.08000000566244125, 0.01600000075995922, 1.040000081062317, 0.0, 0.0, 0.0, 0.0, 0.0, 1.613351082868678E9, 2021-02-14 20:04:42.868
89.0, 0.8227779865264893, -4.428041458129883, 0.05235859751701355, 0.9761139154434204, 0.08000000566244125, 0.01600000075995922, 1.040000081062317, 0.0, 0.0, 0.0, 0.0, 0.0, 1.613351082868678E9, 2021-02-14 20:04:42.868
90.0, -8.261439323425293, -17.27459716796875, -21.97939109802246, -22.9405460357666, 0.08000000566244125, 0.01600000075995922, 1.040000081062317, 0.0, 0.0, 0.0, 0.0, 0.0, 1.61335108286942E9, 2021-02-14 20:04:42.869
90.0, -8.295098304748535, -7.861269474029541, -16.70987319946289, -18.000139236450195, 0.08000000566244125, 0.01600000075995922, 1.040000081062317, 0.0, 0.0, 0.0, 0.0, 0.0, 1.61335108286942E9, 2021-02-14 20:04:42.869
91.0, -7.580777168273926, -4.783331871032715, -0.5348057150840759, -1.7876721620559692, 0.08000000566244125, 0.01600000075995922, 1.040000081062317, 0.0, 0.0, 0.0, 0.0, 0.0, 1.613351082880064E9, 2021-02-14 20:04:42.880
91.0, -4.891788959503174, -10.759692192077637, -11.30197811126709, -11.87418270111084, 0.08000000566244125, 0.01600000075995922, 1.040000081062317, 0.0, 0.0, 0.0, 0.0, 0.0, 1.613351082880064E9, 2021-02-14 20:04:42.880
92.0, -3.2724125385284424, -17.723386764526367, -18.071197509765625, -20.408634185791016, 0.08000000566244125, 0.01600000075995922, 1.040000081062317, 0.0, 0.0, 0.0, 0.0, 0.0, 1.61335108289513E9, 2021-02-14 20:04:42.895
92.0, -3.3060715198516846, -5.692127704620361, -4.398122310638428, -8.313797950744629, 0.08000000566244125, 0.01600000075995922, 1.040000081062317, 0.0, 0.0, 0.0, 0.0, 0.0, 1.61335108289513E9, 2021-02-14 20:04:42.895
93.0, -3.8782763481140137, -3.0854175090789795, -4.802031517028809, -1.1780685186386108, 0.08000000566244125, 0.01600000075995922, 1.040000081062317, 0.0, 0.0, 0.0, 0.0, 0.0, 1.613351082910775E9, 2021-02-14 20:04:42.910
93.0, -14.237798690795898, -19.626995086669922, -25.745471954345703, -19.941146850585938, 0.08000000566244125, 0.01600000075995922, 1.040000081062317, 0.0, 0.0, 0.0, 0.0, 0.0, 1.613351082910775E9, 2021-02-14 20:04:42.910
94.0, -3.781038761138916, -9.087956428527832, -7.498499393463135, -8.594289779663086, 0.08000000566244125, 0.01600000075995922, 1.040000081062317, 0.0, 0.0, 0.0, 0.0, 0.0, 1.613351082911526E9, 2021-02-14 20:04:42.911
94.0, -2.9246017932891846, -1.8175914287567139, -1.791412115097046, 0.3365910053253174, 0.08000000566244125, 0.01600000075995922, 1.040000081062317, 0.0, 0.0, 0.0, 0.0, 0.0, 1.613351082911526E9, 2021-02-14 20:04:42.911
95.0, -10.123908996582031, -16.06661033630371, -19.294143676757812, -25.614574432373047, 0.08000000566244125, 0.01600000075995922, 1.040000081062317, 0.0, 0.0, 0.0, 0.0, 0.0, 1.613351082941466E9, 2021-02-14 20:04:42.941
95.0, -4.551458358764648, -9.996752738952637, -8.785024642944336, -14.15178108215332, 0.08000000566244125, 0.01600000075995922, 1.040000081062317, 0.0, 0.0, 0.0, 0.0, 0.0, 1.613351082941466E9, 2021-02-14 20:04:42.941
96.0, 4.0091729164123535, -4.1176300048828125, -4.69357442855835, -5.613589763641357, 0.08000000566244125, 0.01600000075995922, 1.040000081062317, 0.0, 0.0, 0.0, 0.0, 0.0, 1.613351082942295E9, 2021-02-14 20:04:42.942
96.0, -10.501639366149902, -11.391735076904297, -10.030411720275879, -15.329850196838379, 0.08000000566244125, 0.01600000075995922, 1.040000081062317, 0.0, 0.0, 0.0, 0.0, 0.0, 1.613351082942295E9, 2021-02-14 20:04:42.942
97.0, -9.94813346862793, -11.16360092163086, -13.979745864868164, -25.45749855041504, 0.08000000566244125, 0.01600000075995922, 1.040000081062317, 0.0, 0.0, 0.0, 0.0, 0.0, 1.613351082943091E9, 2021-02-14 20:04:42.943
97.0, -1.2266871929168701, -1.1331896781921387, -5.5350518226623535, -8.736406326293945, 0.08000000566244125, 0.01600000075995922, 1.040000081062317, 0.0, 0.0, 0.0, 0.0, 0.0, 1.613351082943091E9, 2021-02-14 20:04:42.943
98.0, -6.084817409515381, 1.8063716888427734, -0.2879723012447357, -3.5753443241119385, 0.08000000566244125, 0.01600000075995922, 1.040000081062317, 0.0, 0.0, 0.0, 0.0, 0.0, 1.613351082955201E9, 2021-02-14 20:04:42.955
98.0, -8.115582466125488, -14.331296920776367, -22.353382110595703, -22.14394760131836, 0.08000000566244125, 0.01600000075995922, 1.040000081062317, 0.0, 0.0, 0.0, 0.0, 0.0, 1.613351082955201E9, 2021-02-14 20:04:42.955
99.0, -5.411635398864746, -7.019792079925537, -7.479799747467041, -3.511765956878662, 0.08000000566244125, 0.01600000075995922, 1.040000081062317, 0.0, 0.0, 0.0, 0.0, 0.0, 1.613351082971066E9, 2021-02-14 20:04:42.971
99.0, -0.9274951815605164, -4.4990997314453125, 0.9050557613372803, 2.0569450855255127, 0.08000000566244125, 0.01600000075995922, 1.040000081062317, 0.0, 0.0, 0.0, 0.0, 0.0, 1.613351082971066E9, 2021-02-14 20:04:42.971
100.0, -10.65871524810791, -18.792997360229492, -23.969018936157227, -27.211511611938477, 0.08000000566244125, 0.01600000075995922, 1.040000081062317, 0.0, 0.0, 0.0, 0.0, 0.0, 1.613351082971579E9, 2021-02-14 20:04:42.971
100.0, -4.4990997314453125, -9.259992599487305, -9.271211624145508, -11.2944974899292, 0.08000000566244125, 0.01600000075995922, 1.040000081062317, 0.0, 0.0, 0.0, 0.0, 0.0, 1.613351082971579E9, 2021-02-14 20:04:42.971
0.0, 22.297283172607422, 25.799699783325195, 27.865995407104492, 25.532297134399414, 0.08000000566244125, 0.01600000075995922, 1.040000081062317, 0.0, 0.0, 0.0, 0.0, 0.0, 1.613351082985794E9, 2021-02-14 20:04:42.985
1.0, 14.682847023010254, 21.992481231689453, 13.613235473632812, 18.669580459594727, 0.08000000566244125, 0.01600000075995922, 1.040000081062317, 0.0, 0.0, 0.0, 0.0, 0.0, 1.613351082986561E9, 2021-02-14 20:04:42.986
1.0, 14.551950454711914, 15.133504867553711, 9.035598754882812, 12.592243194580078, 0.08000000566244125, 0.01600000075995922, 1.040000081062317, 0.0, 0.0, 0.0, 0.0, 0.0, 1.613351082986561E9, 2021-02-14 20:04:42.986
2.0, 17.772005081176758, 23.226648330688477, 18.968772888183594, 18.864055633544922, 0.09600000083446503, 0.01600000075995922, 1.040000081062317, 0.0, 0.0, 0.0, 0.0, 0.0, 1.613351083000137E9, 2021-02-14 20:04:43.000
2.0, 23.72592544555664, 23.9035701751709, 25.177005767822266, 30.154813766479492, 0.09600000083446503, 0.01600000075995922, 1.040000081062317, 0.0, 0.0, 0.0, 0.0, 0.0, 1.613351083000137E9, 2021-02-14 20:04:43.000
3.0, 8.123063087463379, 11.677837371826172, 9.360969543457031, -0.0411388985812664, 0.09600000083446503, 0.01600000075995922, 1.040000081062317, 0.0, 0.0, 0.0, 0.0, 0.0, 1.613351083015811E9, 2021-02-14 20:04:43.015
3.0, 10.834489822387695, 18.52559471130371, 16.313444137573242, 18.437705993652344, 0.09600000083446503, 0.01600000075995922, 1.040000081062317, 0.0, 0.0, 0.0, 0.0, 0.0, 1.613351083015811E9, 2021-02-14 20:04:43.015
4.0, 19.772851943969727, 29.9248104095459, 29.85188102722168, 31.542316436767578, 0.09600000083446503, 0.01600000075995922, 1.040000081062317, 0.0, 0.0, 0.0, 0.0, 0.0, 1.613351083016547E9, 2021-02-14 20:04:43.016
4.0, 10.774651527404785, 13.405671119689941, 8.998199462890625, 3.8146979808807373, 0.09600000083446503, 0.01600000075995922, 1.040000081062317, 0.0, 0.0, 0.0, 0.0, 0.0, 1.613351083016547E9, 2021-02-14 20:04:43.016
5.0, 18.957551956176758, 22.246795654296875, 12.678260803222656, 15.730019569396973, 0.09600000083446503, 0.01600000075995922, 1.040000081062317, 0.0, 0.0, 0.0, 0.0, 0.0, 1.613351083030096E9, 2021-02-14 20:04:43.030
5.0, 15.311150550842285, 23.50714111328125, 17.285818099975586, 20.48343276977539, 0.09600000083446503, 0.01600000075995922, 1.040000081062317, 0.0, 0.0, 0.0, 0.0, 0.0, 1.613351083030096E9, 2021-02-14 20:04:43.030
6.0, 11.215959548950195, 16.296613693237305, 11.122462272644043, 17.47281265258789, 0.09600000083446503, 0.01600000075995922, 1.040000081062317, 0.0, 0.0, 0.0, 0.0, 0.0, 1.613351083045767E9, 2021-02-14 20:04:43.045
6.0, 7.419961452484131, 11.520761489868164, 6.125956058502197, 5.381716251373291, 0.09600000083446503, 0.01600000075995922, 1.040000081062317, 0.0, 0.0, 0.0, 0.0, 0.0, 1.613351083045767E9, 2021-02-14 20:04:43.045
7.0, 13.310303688049316, 24.763748168945312, 19.862607955932617, 21.78865623474121, 0.09600000083446503, 0.01600000075995922, 1.040000081062317, 0.0, 0.0, 0.0, 0.0, 0.0, 1.613351083046539E9, 2021-02-14 20:04:43.046
7.0, 17.865501403808594, 25.257413864135742, 29.021623611450195, 27.091835021972656, 0.09600000083446503, 0.01600000075995922, 1.040000081062317, 0.0, 0.0, 0.0, 0.0, 0.0, 1.613351083046539E9, 2021-02-14 20:04:43.046
8.0, 10.931727409362793, 13.764701843261719, 6.653282165527344, 11.156121253967285, 0.09600000083446503, 0.01600000075995922, 1.040000081062317, 0.0, 0.0, 0.0, 0.0, 0.0, 1.613351083060092E9, 2021-02-14 20:04:43.060
8.0, 17.74956512451172, 19.95423698425293, 18.198352813720703, 17.977699279785156, 0.09600000083446503, 0.01600000075995922, 1.040000081062317, 0.0, 0.0, 0.0, 0.0, 0.0, 1.613351083060092E9, 2021-02-14 20:04:43.060
9.0, 20.59562873840332, 32.58013916015625, 29.115121841430664, 33.913414001464844, 0.09600000083446503, 0.01600000075995922, 1.040000081062317, 0.0, 0.0, 0.0, 0.0, 0.0, 1.613351083075765E9, 2021-02-14 20:04:43.075
9.0, 9.342269897460938, 17.818754196166992, 3.511765956878662, 8.007125854492188, 0.09600000083446503, 0.01600000075995922, 1.040000081062317, 0.0, 0.0, 0.0, 0.0, 0.0, 1.613351083075765E9, 2021-02-14 20:04:43.075
10.0, 16.91556739807129, 18.854705810546875, 10.494159698486328, 12.797937393188477, 0.09600000083446503, 0.01600000075995922, 1.040000081062317, 0.0, 0.0, 0.0, 0.0, 0.0, 1.61335108307647E9, 2021-02-14 20:04:43.076
10.0, 21.7961368560791, 25.74734115600586, 23.752103805541992, 34.235042572021484, 0.09600000083446503, 0.01600000075995922, 1.040000081062317, 0.0, 0.0, 0.0, 0.0, 0.0, 1.61335108307647E9, 2021-02-14 20:04:43.076
11.0, 6.208233833312988, 16.46491050720215, 17.581270217895508, 14.29389762878418, 0.09600000083446503, 0.01600000075995922, 1.040000081062317, 0.0, 0.0, 0.0, 0.0, 0.0, 1.613351083090089E9, 2021-02-14 20:04:43.090
11.0, 9.031858444213867, 10.48854923248291, 7.487279891967773, 7.883708953857422, 0.09600000083446503, 0.01600000075995922, 1.040000081062317, 0.0, 0.0, 0.0, 0.0, 0.0, 1.613351083090089E9, 2021-02-14 20:04:43.090
12.0, 16.70987319946289, 21.820446014404297, 17.237199783325195, 16.65377426147461, 0.09600000083446503, 0.01600000075995922, 1.040000081062317, 0.0, 0.0, 0.0, 0.0, 0.0, 1.613351083105765E9, 2021-02-14 20:04:43.105
12.0, 18.445186614990234, 28.54478645324707, 27.0955753326416, 31.994844436645508, 0.09600000083446503, 0.01600000075995922, 1.040000081062317, 0.0, 0.0, 0.0, 0.0, 0.0, 1.613351083105765E9, 2021-02-14 20:04:43.105
13.0, 12.689480781555176, 9.127225875854492, 3.7398998737335205, 0.08601769804954529, 0.09600000083446503, 0.01600000075995922, 1.040000081062317, 0.0, 0.0, 0.0, 0.0, 0.0, 1.613351083106475E9, 2021-02-14 20:04:43.106
13.0, 16.06661033630371, 23.368764877319336, 17.061424255371094, 19.26796531677246, 0.09600000083446503, 0.01600000075995922, 1.040000081062317, 0.0, 0.0, 0.0, 0.0, 0.0, 1.613351083106475E9, 2021-02-14 20:04:43.106
14.0, 16.53409767150879, 28.675682067871094, 24.013896942138672, 26.48223114013672, 0.09600000083446503, 0.01600000075995922, 1.040000081062317, 0.0, 0.0, 0.0, 0.0, 0.0, 1.613351083120086E9, 2021-02-14 20:04:43.120
14.0, 10.636275291442871, 15.271881103515625, 8.4185152053833, 12.098576545715332, 0.09600000083446503, 0.01600000075995922, 1.040000081062317, 0.0, 0.0, 0.0, 0.0, 0.0, 1.613351083120086E9, 2021-02-14 20:04:43.120
15.0, 18.422746658325195, 22.80030059814453, 19.989765167236328, 18.606002807617188, 0.09600000083446503, 0.01600000075995922, 1.040000081062317, 0.0, 0.0, 0.0, 0.0, 0.0, 1.613351083135876E9, 2021-02-14 20:04:43.135
15.0, 25.573436737060547, 25.519207000732422, 21.100515365600586, 26.257837295532227, 0.09600000083446503, 0.01600000075995922, 1.040000081062317, 0.0, 0.0, 0.0, 0.0, 0.0, 1.613351083135876E9, 2021-02-14 20:04:43.135
16.0, 12.700699806213379, 20.477821350097656, 17.90290069580078, 19.38764190673828, 0.09600000083446503, 0.01600000075995922, 1.040000081062317, 0.0, 0.0, 0.0, 0.0, 0.0, 1.613351083136622E9, 2021-02-14 20:04:43.136
16.0, 9.334790229797363, 12.530534744262695, 7.977206707000732, 4.6898345947265625, 0.09600000083446503, 0.01600000075995922, 1.040000081062317, 0.0, 0.0, 0.0, 0.0, 0.0, 1.613351083136622E9, 2021-02-14 20:04:43.136
17.0, 18.97625160217285, 24.70764923095703, 21.43710708618164, 23.494050979614258, 0.09600000083446503, 0.01600000075995922, 1.040000081062317, 0.0, 0.0, 0.0, 0.0, 0.0, 1.613351083150164E9, 2021-02-14 20:04:43.150
17.0, 18.456405639648438, 30.526933670043945, 29.2086181640625, 29.08894157409668, 0.09600000083446503, 0.01600000075995922, 1.040000081062317, 0.0, 0.0, 0.0, 0.0, 0.0, 1.613351083150164E9, 2021-02-14 20:04:43.150
18.0, 11.358076095581055, 11.528241157531738, 5.041385173797607, 5.119923114776611, 0.09600000083446503, 0.01600000075995922, 1.040000081062317, 0.0, 0.0, 0.0, 0.0, 0.0, 1.613351083165847E9, 2021-02-14 20:04:43.165
18.0, 20.924739837646484, 20.17115020751953, 18.837875366210938, 22.35712242126465, 0.09600000083446503, 0.01600000075995922, 1.040000081062317, 0.0, 0.0, 0.0, 0.0, 0.0, 1.613351083165847E9, 2021-02-14 20:04:43.165
19.0, 17.74956512451172, 23.997068405151367, 28.647634506225586, 27.56306266784668, 0.09600000083446503, 0.01600000075995922, 1.040000081062317, 0.0, 0.0, 0.0, 0.0, 0.0, 1.613351083166596E9, 2021-02-14 20:04:43.166
19.0, 10.07529067993164, 13.244855880737305, 5.830503940582275, 4.192427635192871, 0.09600000083446503, 0.01600000075995922, 1.040000081062317, 0.0, 0.0, 0.0, 0.0, 0.0, 1.613351083166596E9, 2021-02-14 20:04:43.166
20.0, 15.251312255859375, 18.106725692749023, 11.844263076782227, 13.740392684936523, 0.09600000083446503, 0.01600000075995922, 1.040000081062317, 0.0, 0.0, 0.0, 0.0, 0.0, 1.613351083180091E9, 2021-02-14 20:04:43.180
20.0, 16.22368621826172, 25.122777938842773, 22.473058700561523, 28.2399845123291, 0.09600000083446503, 0.01600000075995922, 1.040000081062317, 0.0, 0.0, 0.0, 0.0, 0.0, 1.613351083180091E9, 2021-02-14 20:04:43.180
21.0, 21.463285446166992, 17.50086212158203, 15.857175827026367, 15.18773365020752, 0.09600000083446503, 0.01600000075995922, 1.040000081062317, 0.0, 0.0, 0.0, 0.0, 0.0, 1.613351083195743E9, 2021-02-14 20:04:43.195
21.0, 8.766325950622559, 13.17753791809082, 9.862115859985352, 10.662454605102539, 0.09600000083446503, 0.01600000075995922, 1.040000081062317, 0.0, 0.0, 0.0, 0.0, 0.0, 1.613351083195743E9, 2021-02-14 20:04:43.195
22.0, 15.935713768005371, 28.8327579498291, 20.26277732849121, 24.683340072631836, 0.08000000566244125, 0.01600000075995922, 1.040000081062317, 0.0, 0.0, 0.0, 0.0, 0.0, 1.61335108319649E9, 2021-02-14 20:04:43.196
22.0, 18.987472534179688, 32.44550323486328, 23.632427215576172, 33.15795135498047, 0.08000000566244125, 0.01600000075995922, 1.040000081062317, 0.0, 0.0, 0.0, 0.0, 0.0, 1.61335108319649E9, 2021-02-14 20:04:43.196
23.0, 11.86296272277832, 10.555867195129395, 3.911935329437256, 5.673428058624268, 0.08000000566244125, 0.01600000075995922, 1.040000081062317, 0.0, 0.0, 0.0, 0.0, 0.0, 1.613351083210177E9, 2021-02-14 20:04:43.210
23.0, 14.847402572631836, 20.148710250854492, 17.39427375793457, 20.576929092407227, 0.08000000566244125, 0.01600000075995922, 1.040000081062317, 0.0, 0.0, 0.0, 0.0, 0.0, 1.613351083210177E9, 2021-02-14 20:04:43.210
24.0, 16.612634658813477, 27.91648292541504, 25.737991333007812, 24.477645874023438, 0.08000000566244125, 0.01600000075995922, 1.040000081062317, 0.0, 0.0, 0.0, 0.0, 0.0, 1.613351083225772E9, 2021-02-14 20:04:43.225
24.0, 7.8986687660217285, 10.230496406555176, 4.506579399108887, 5.108703136444092, 0.08000000566244125, 0.01600000075995922, 1.040000081062317, 0.0, 0.0, 0.0, 0.0, 0.0, 1.613351083225772E9, 2021-02-14 20:04:43.225
25.0, 18.523723602294922, 23.020954132080078, 16.298484802246094, 17.147441864013672, 0.08000000566244125, 0.01600000075995922, 1.040000081062317, 0.0, 0.0, 0.0, 0.0, 0.0, 1.613351083226518E9, 2021-02-14 20:04:43.226
25.0, 20.97709846496582, 24.53935432434082, 23.98023796081543, 22.895668029785156, 0.08000000566244125, 0.01600000075995922, 1.040000081062317, 0.0, 0.0, 0.0, 0.0, 0.0, 1.613351083226518E9, 2021-02-14 20:04:43.226
26.0, 9.877076148986816, 17.908510208129883, 15.8309965133667, 19.956106185913086, 0.08000000566244125, 0.01600000075995922, 1.040000081062317, 0.0, 0.0, 0.0, 0.0, 0.0, 1.613351083256524E9, 2021-02-14 20:04:43.256
26.0, 9.783577919006348, 14.602438926696777, 5.826764106750488, 6.967433452606201, 0.08000000566244125, 0.01600000075995922, 1.040000081062317, 0.0, 0.0, 0.0, 0.0, 0.0, 1.613351083256524E9, 2021-02-14 20:04:43.256
27.0, 12.734359741210938, 25.953035354614258, 21.496944427490234, 21.347349166870117, 0.08000000566244125, 0.01600000075995922, 1.040000081062317, 0.0, 0.0, 0.0, 0.0, 0.0, 1.613351083257233E9, 2021-02-14 20:04:43.257
27.0, 20.281476974487305, 29.681716918945312, 26.28401756286621, 27.925832748413086, 0.08000000566244125, 0.01600000075995922, 1.040000081062317, 0.0, 0.0, 0.0, 0.0, 0.0, 1.613351083257233E9, 2021-02-14 20:04:43.257
28.0, 7.6219162940979, 11.726456642150879, 2.6179299354553223, 3.994213104248047, 0.08000000566244125, 0.01600000075995922, 1.040000081062317, 0.0, 0.0, 0.0, 0.0, 0.0, 1.613351083257985E9, 2021-02-14 20:04:43.257
28.0, 16.406940460205078, 21.97378158569336, 14.787564277648926, 13.688034057617188, 0.08000000566244125, 0.01600000075995922, 1.040000081062317, 0.0, 0.0, 0.0, 0.0, 0.0, 1.613351083257985E9, 2021-02-14 20:04:43.257
29.0, 20.891080856323242, 30.089365005493164, 28.19136619567871, 32.06590270996094, 0.08000000566244125, 0.01600000075995922, 1.040000081062317, 0.0, 0.0, 0.0, 0.0, 0.0, 1.613351083270101E9, 2021-02-14 20:04:43.270
29.0, 13.175667762756348, 15.081146240234375, 7.049711227416992, 13.91242790222168, 0.08000000566244125, 0.01600000075995922, 1.040000081062317, 0.0, 0.0, 0.0, 0.0, 0.0, 1.613351083270101E9, 2021-02-14 20:04:43.270
30.0, 12.020038604736328, 14.946510314941406, 13.5421781539917, 17.966480255126953, 0.08000000566244125, 0.01600000075995922, 1.040000081062317, 0.0, 0.0, 0.0, 0.0, 0.0, 1.613351083285816E9, 2021-02-14 20:04:43.285
30.0, 16.388240814208984, 26.936630249023438, 24.331789016723633, 25.135868072509766, 0.08000000566244125, 0.01600000075995922, 1.040000081062317, 0.0, 0.0, 0.0, 0.0, 0.0, 1.613351083285816E9, 2021-02-14 20:04:43.285
31.0, 14.55569076538086, 21.270681381225586, 23.363155364990234, 20.633028030395508, 0.08000000566244125, 0.01600000075995922, 1.040000081062317, 0.0, 0.0, 0.0, 0.0, 0.0, 1.613351083286561E9, 2021-02-14 20:04:43.286
31.0, 14.92594051361084, 20.724655151367188, 11.556290626525879, 13.523478507995605, 0.08000000566244125, 0.01600000075995922, 1.040000081062317, 0.0, 0.0, 0.0, 0.0, 0.0, 1.613351083286561E9, 2021-02-14 20:04:43.286
32.0, 17.715906143188477, 20.459123611450195, 20.113182067871094, 15.255051612854004, 0.08000000566244125, 0.01600000075995922, 1.040000081062317, 0.0, 0.0, 0.0, 0.0, 0.0, 1.613351083316449E9, 2021-02-14 20:04:43.316
32.0, 18.766817092895508, 29.42740249633789, 27.290050506591797, 27.85103416442871, 0.08000000566244125, 0.01600000075995922, 1.040000081062317, 0.0, 0.0, 0.0, 0.0, 0.0, 1.613351083316449E9, 2021-02-14 20:04:43.316
33.0, 5.946440696716309, 10.683024406433105, 1.6792150735855103, 0.9536744952201843, 0.08000000566244125, 0.01600000075995922, 1.040000081062317, 0.0, 0.0, 0.0, 0.0, 0.0, 1.613351083317214E9, 2021-02-14 20:04:43.317
33.0, 14.99699878692627, 16.15823745727539, 17.4241943359375, 19.851388931274414, 0.08000000566244125, 0.01600000075995922, 1.040000081062317, 0.0, 0.0, 0.0, 0.0, 0.0, 1.613351083317214E9, 2021-02-14 20:04:43.317
34.0, 19.675613403320312, 30.19034194946289, 25.06855010986328, 28.075429916381836, 0.08000000566244125, 0.01600000075995922, 1.040000081062317, 0.0, 0.0, 0.0, 0.0, 0.0, 1.613351083317947E9, 2021-02-14 20:04:43.317
34.0, 12.023777961730957, 13.854459762573242, 7.382562637329102, 6.582223892211914, 0.08000000566244125, 0.01600000075995922, 1.040000081062317, 0.0, 0.0, 0.0, 0.0, 0.0, 1.613351083317947E9, 2021-02-14 20:04:43.317
35.0, 19.185686111450195, 18.933242797851562, 12.992412567138672, 21.63532066345215, 0.08000000566244125, 0.01600000075995922, 1.040000081062317, 0.0, 0.0, 0.0, 0.0, 0.0, 1.613351083330127E9, 2021-02-14 20:04:43.330
35.0, 23.696006774902344, 27.793066024780273, 26.448572158813477, 24.48138427734375, 0.08000000566244125, 0.01600000075995922, 1.040000081062317, 0.0, 0.0, 0.0, 0.0, 0.0, 1.613351083330127E9, 2021-02-14 20:04:43.330
36.0, 13.033551216125488, 21.820446014404297, 15.071796417236328, 17.719646453857422, 0.08000000566244125, 0.01600000075995922, 1.040000081062317, 0.0, 0.0, 0.0, 0.0, 0.0, 1.613351083362113E9, 2021-02-14 20:04:43.362
36.0, 14.761384963989258, 19.47178840637207, 9.001938819885254, 7.835090637207031, 0.08000000566244125, 0.01600000075995922, 1.040000081062317, 0.0, 0.0, 0.0, 0.0, 0.0, 1.613351083362113E9, 2021-02-14 20:04:43.362
37.0, 14.899761199951172, 19.19129753112793, 24.74317741394043, 22.252405166625977, 0.08000000566244125, 0.01600000075995922, 1.040000081062317, 0.0, 0.0, 0.0, 0.0, 0.0, 1.613351083363048E9, 2021-02-14 20:04:43.363
37.0, 17.169879913330078, 27.63973045349121, 29.186180114746094, 30.33806800842285, 0.08000000566244125, 0.01600000075995922, 1.040000081062317, 0.0, 0.0, 0.0, 0.0, 0.0, 1.613351083363048E9, 2021-02-14 20:04:43.363
38.0, 9.678860664367676, 13.925517082214355, 6.952474117279053, 8.209080696105957, 0.08000000566244125, 0.01600000075995922, 1.040000081062317, 0.0, 0.0, 0.0, 0.0, 0.0, 1.613351083363668E9, 2021-02-14 20:04:43.363
38.0, 16.765972137451172, 24.939523696899414, 21.878414154052734, 20.083263397216797, 0.08000000566244125, 0.01600000075995922, 1.040000081062317, 0.0, 0.0, 0.0, 0.0, 0.0, 1.613351083363668E9, 2021-02-14 20:04:43.363
39.0, 22.47679901123047, 27.980060577392578, 26.175559997558594, 26.28401756286621, 0.08000000566244125, 0.01600000075995922, 1.040000081062317, 0.0, 0.0, 0.0, 0.0, 0.0, 1.613351083364383E9, 2021-02-14 20:04:43.364
39.0, 3.9867334365844727, 9.590973854064941, 8.583070755004883, 2.7076876163482666, 0.08000000566244125, 0.01600000075995922, 1.040000081062317, 0.0, 0.0, 0.0, 0.0, 0.0, 1.613351083364383E9, 2021-02-14 20:04:43.364
40.0, 13.441200256347656, 20.76579475402832, 14.286417961120605, 17.502731323242188, 0.08000000566244125, 0.01600000075995922, 1.040000081062317, 0.0, 0.0, 0.0, 0.0, 0.0, 1.61335108337513E9, 2021-02-14 20:04:43.375
40.0, 14.196660041809082, 25.964256286621094, 21.74751853942871, 26.407434463500977, 0.08000000566244125, 0.01600000075995922, 1.040000081062317, 0.0, 0.0, 0.0, 0.0, 0.0, 1.61335108337513E9, 2021-02-14 20:04:43.375
41.0, 15.329850196838379, 23.619338989257812, 15.105456352233887, 19.413820266723633, 0.08000000566244125, 0.01600000075995922, 1.040000081062317, 0.0, 0.0, 0.0, 0.0, 0.0, 1.613351083390078E9, 2021-02-14 20:04:43.390
41.0, 13.523478507995605, 11.270188331604004, 7.868749618530273, 7.857529640197754, 0.08000000566244125, 0.01600000075995922, 1.040000081062317, 0.0, 0.0, 0.0, 0.0, 0.0, 1.613351083390078E9, 2021-02-14 20:04:43.390
42.0, 16.0740909576416, 25.212535858154297, 16.89312744140625, 24.133573532104492, 0.08000000566244125, 0.01600000075995922, 1.040000081062317, 0.0, 0.0, 0.0, 0.0, 0.0, 1.613351083405862E9, 2021-02-14 20:04:43.405
42.0, 21.392227172851562, 26.30458641052246, 22.77225112915039, 27.151674270629883, 0.08000000566244125, 0.01600000075995922, 1.040000081062317, 0.0, 0.0, 0.0, 0.0, 0.0, 1.613351083405862E9, 2021-02-14 20:04:43.405
43.0, 9.559184074401855, 13.450550079345703, 6.840277194976807, 6.769218921661377, 0.08000000566244125, 0.01600000075995922, 1.040000081062317, 0.0, 0.0, 0.0, 0.0, 0.0, 1.613351083406555E9, 2021-02-14 20:04:43.406
43.0, 15.614082336425781, 14.82309341430664, 17.196060180664062, 20.318876266479492, 0.08000000566244125, 0.01600000075995922, 1.040000081062317, 0.0, 0.0, 0.0, 0.0, 0.0, 1.613351083406555E9, 2021-02-14 20:04:43.406
44.0, 18.149734497070312, 30.123023986816406, 27.305009841918945, 30.745718002319336, 0.08000000566244125, 0.01600000075995922, 1.040000081062317, 0.0, 0.0, 0.0, 0.0, 0.0, 1.61335108342009E9, 2021-02-14 20:04:43.420
44.0, 11.825563430786133, 11.157991409301758, 6.178314685821533, 10.441801071166992, 0.08000000566244125, 0.01600000075995922, 1.040000081062317, 0.0, 0.0, 0.0, 0.0, 0.0, 1.61335108342009E9, 2021-02-14 20:04:43.420
45.0, 18.572343826293945, 24.41219711303711, 15.539284706115723, 20.03090476989746, 0.08000000566244125, 0.01600000075995922, 1.040000081062317, 0.0, 0.0, 0.0, 0.0, 0.0, 1.613351083435945E9, 2021-02-14 20:04:43.435
45.0, 15.917014122009277, 26.43922233581543, 24.006418228149414, 24.111135482788086, 0.08000000566244125, 0.01600000075995922, 1.040000081062317, 0.0, 0.0, 0.0, 0.0, 0.0, 1.613351083435945E9, 2021-02-14 20:04:43.435
46.0, 14.054544448852539, 17.639238357543945, 13.605755805969238, 18.90145492553711, 0.08000000566244125, 0.01600000075995922, 1.040000081062317, 0.0, 0.0, 0.0, 0.0, 0.0, 1.613351083436611E9, 2021-02-14 20:04:43.436
46.0, 14.783824920654297, 13.173797607421875, 7.917368412017822, 3.7361600399017334, 0.08000000566244125, 0.01600000075995922, 1.040000081062317, 0.0, 0.0, 0.0, 0.0, 0.0, 1.613351083436611E9, 2021-02-14 20:04:43.436
47.0, 16.63881492614746, 24.84976577758789, 19.540977478027344, 23.329496383666992, 0.08000000566244125, 0.01600000075995922, 1.040000081062317, 0.0, 0.0, 0.0, 0.0, 0.0, 1.613351083450133E9, 2021-02-14 20:04:43.450
47.0, 17.031503677368164, 27.205902099609375, 25.936206817626953, 33.113075256347656, 0.08000000566244125, 0.01600000075995922, 1.040000081062317, 0.0, 0.0, 0.0, 0.0, 0.0, 1.613351083450133E9, 2021-02-14 20:04:43.450
48.0, 12.192073822021484, 9.729350090026855, 1.7727125883102417, 4.697314262390137, 0.08000000566244125, 0.01600000075995922, 1.040000081062317, 0.0, 0.0, 0.0, 0.0, 0.0, 1.613351083465833E9, 2021-02-14 20:04:43.465
48.0, 12.760539054870605, 24.61041259765625, 15.5579833984375, 20.704086303710938, 0.08000000566244125, 0.01600000075995922, 1.040000081062317, 0.0, 0.0, 0.0, 0.0, 0.0, 1.613351083465833E9, 2021-02-14 20:04:43.465
49.0, 15.834736824035645, 28.335351943969727, 28.823408126831055, 34.66513442993164, 0.08000000566244125, 0.01600000075995922, 1.040000081062317, 0.0, 0.0, 0.0, 0.0, 0.0, 1.613351083466604E9, 2021-02-14 20:04:43.466
49.0, 11.167341232299805, 14.284547805786133, 11.096282958984375, 14.697806358337402, 0.08000000566244125, 0.01600000075995922, 1.040000081062317, 0.0, 0.0, 0.0, 0.0, 0.0, 1.613351083466604E9, 2021-02-14 20:04:43.466
50.0, 15.427087783813477, 19.643823623657227, 14.536991119384766, 15.475706100463867, 0.08000000566244125, 0.01600000075995922, 1.040000081062317, 0.0, 0.0, 0.0, 0.0, 0.0, 1.61335108348006E9, 2021-02-14 20:04:43.480
50.0, 20.015945434570312, 28.167057037353516, 27.10305404663086, 23.00412368774414, 0.08000000566244125, 0.01600000075995922, 1.040000081062317, 0.0, 0.0, 0.0, 0.0, 0.0, 1.61335108348006E9, 2021-02-14 20:04:43.480
51.0, 18.42648696899414, 20.833112716674805, 15.5579833984375, 21.040678024291992, 0.08000000566244125, 0.01600000075995922, 1.040000081062317, 0.0, 0.0, 0.0, 0.0, 0.0, 1.613351083495815E9, 2021-02-14 20:04:43.495
51.0, 14.148041725158691, 15.133504867553711, 4.742193222045898, 14.095683097839355, 0.08000000566244125, 0.01600000075995922, 1.040000081062317, 0.0, 0.0, 0.0, 0.0, 0.0, 1.613351083495815E9, 2021-02-14 20:04:43.495
52.0, 18.445186614990234, 25.051719665527344, 19.90374755859375, 23.250957489013672, 0.08000000566244125, 0.01600000075995922, 1.040000081062317, 0.0, 0.0, 0.0, 0.0, 0.0, 1.613351083496571E9, 2021-02-14 20:04:43.496
52.0, 17.67850685119629, 26.865571975708008, 25.84644889831543, 29.56390953063965, 0.08000000566244125, 0.01600000075995922, 1.040000081062317, 0.0, 0.0, 0.0, 0.0, 0.0, 1.613351083496571E9, 2021-02-14 20:04:43.496
53.0, 10.329604148864746, 12.964363098144531, 6.840277194976807, 5.538791656494141, 0.08000000566244125, 0.01600000075995922, 1.040000081062317, 0.0, 0.0, 0.0, 0.0, 0.0, 1.613351083510087E9, 2021-02-14 20:04:43.510
53.0, 16.799631118774414, 27.07500648498535, 20.244077682495117, 17.843063354492188, 0.08000000566244125, 0.01600000075995922, 1.040000081062317, 0.0, 0.0, 0.0, 0.0, 0.0, 1.613351083510087E9, 2021-02-14 20:04:43.510
54.0, 20.019683837890625, 28.866416931152344, 28.72991180419922, 27.162893295288086, 0.08000000566244125, 0.01600000075995922, 1.040000081062317, 0.0, 0.0, 0.0, 0.0, 0.0, 1.6133510835258E9, 2021-02-14 20:04:43.525
54.0, 13.755352020263672, 9.650812149047852, 3.6314427852630615, 5.176021575927734, 0.08000000566244125, 0.01600000075995922, 1.040000081062317, 0.0, 0.0, 0.0, 0.0, 0.0, 1.6133510835258E9, 2021-02-14 20:04:43.525
55.0, 14.308856964111328, 14.288288116455078, 14.432273864746094, 12.371588706970215, 0.08000000566244125, 0.01600000075995922, 1.040000081062317, 0.0, 0.0, 0.0, 0.0, 0.0, 1.613351083526573E9, 2021-02-14 20:04:43.526
55.0, 18.28437042236328, 27.72574806213379, 27.192811965942383, 23.890480041503906, 0.08000000566244125, 0.01600000075995922, 1.040000081062317, 0.0, 0.0, 0.0, 0.0, 0.0, 1.613351083526573E9, 2021-02-14 20:04:43.526
56.0, 17.09134292602539, 19.075359344482422, 22.59647560119629, 18.445186614990234, 0.08000000566244125, 0.01600000075995922, 1.040000081062317, 0.0, 0.0, 0.0, 0.0, 0.0, 1.613351083540086E9, 2021-02-14 20:04:43.540
56.0, 11.61238956451416, 13.256075859069824, 12.5062255859375, 8.833643913269043, 0.08000000566244125, 0.01600000075995922, 1.040000081062317, 0.0, 0.0, 0.0, 0.0, 0.0, 1.613351083540086E9, 2021-02-14 20:04:43.540
57.0, 17.723386764526367, 22.011180877685547, 20.266517639160156, 17.573789596557617, 0.08000000566244125, 0.01600000075995922, 1.040000081062317, 0.0, 0.0, 0.0, 0.0, 0.0, 1.613351083555548E9, 2021-02-14 20:04:43.555
57.0, 18.13103485107422, 25.276113510131836, 27.779977798461914, 28.96178436279297, 0.08000000566244125, 0.01600000075995922, 1.040000081062317, 0.0, 0.0, 0.0, 0.0, 0.0, 1.613351083555548E9, 2021-02-14 20:04:43.555
58.0, 9.076737403869629, 9.80788803100586, 0.5572450757026672, 8.945840835571289, 0.08000000566244125, 0.01600000075995922, 1.040000081062317, 0.0, 0.0, 0.0, 0.0, 0.0, 1.613351083587218E9, 2021-02-14 20:04:43.587
58.0, 14.41357421875, 21.947603225708008, 17.080123901367188, 20.146841049194336, 0.08000000566244125, 0.01600000075995922, 1.040000081062317, 0.0, 0.0, 0.0, 0.0, 0.0, 1.613351083587218E9, 2021-02-14 20:04:43.587
59.0, 19.84016990661621, 29.85375213623047, 29.964078903198242, 28.617713928222656, 0.08000000566244125, 0.01600000075995922, 1.040000081062317, 0.0, 0.0, 0.0, 0.0, 0.0, 1.613351083587932E9, 2021-02-14 20:04:43.587
59.0, 10.946686744689941, 16.423770904541016, 8.530712127685547, 10.90928840637207, 0.08000000566244125, 0.01600000075995922, 1.040000081062317, 0.0, 0.0, 0.0, 0.0, 0.0, 1.613351083587932E9, 2021-02-14 20:04:43.587
60.0, 15.011958122253418, 20.541400909423828, 14.252758979797363, 15.718799591064453, 0.08000000566244125, 0.01600000075995922, 1.040000081062317, 0.0, 0.0, 0.0, 0.0, 0.0, 1.613351083588629E9, 2021-02-14 20:04:43.588
60.0, 23.015344619750977, 27.961362838745117, 20.633028030395508, 25.659454345703125, 0.08000000566244125, 0.01600000075995922, 1.040000081062317, 0.0, 0.0, 0.0, 0.0, 0.0, 1.613351083588629E9, 2021-02-14 20:04:43.588
61.0, 16.036691665649414, 17.983308792114258, 10.393181800842285, 17.596229553222656, 0.08000000566244125, 0.01600000075995922, 1.040000081062317, 0.0, 0.0, 0.0, 0.0, 0.0, 1.613351083589414E9, 2021-02-14 20:04:43.589
61.0, 9.3871488571167, 14.737075805664062, 10.247325897216797, 12.36410903930664, 0.08000000566244125, 0.01600000075995922, 1.040000081062317, 0.0, 0.0, 0.0, 0.0, 0.0, 1.613351083589414E9, 2021-02-14 20:04:43.589
62.0, 20.27773666381836, 25.23123550415039, 18.647140502929688, 21.354827880859375, 0.09600000083446503, 0.01600000075995922, 1.040000081062317, 0.0, 0.0, 0.0, 0.0, 0.0, 1.613351083600138E9, 2021-02-14 20:04:43.600
62.0, 19.290403366088867, 30.377336502075195, 27.735097885131836, 28.07168960571289, 0.09600000083446503, 0.01600000075995922, 1.040000081062317, 0.0, 0.0, 0.0, 0.0, 0.0, 1.613351083600138E9, 2021-02-14 20:04:43.600
63.0, 13.998445510864258, 8.195990562438965, 6.2157135009765625, 6.376529216766357, 0.09600000083446503, 0.01600000075995922, 1.040000081062317, 0.0, 0.0, 0.0, 0.0, 0.0, 1.613351083615814E9, 2021-02-14 20:04:43.615
63.0, 18.7443790435791, 25.63514518737793, 17.334436416625977, 24.29813003540039, 0.09600000083446503, 0.01600000075995922, 1.040000081062317, 0.0, 0.0, 0.0, 0.0, 0.0, 1.613351083615814E9, 2021-02-14 20:04:43.615
64.0, 15.344809532165527, 27.288179397583008, 24.032596588134766, 29.967819213867188, 0.09600000083446503, 0.01600000075995922, 1.040000081062317, 0.0, 0.0, 0.0, 0.0, 0.0, 1.613351083616577E9, 2021-02-14 20:04:43.616
64.0, 12.221993446350098, 9.448857307434082, 8.669088363647461, 3.9530742168426514, 0.09600000083446503, 0.01600000075995922, 1.040000081062317, 0.0, 0.0, 0.0, 0.0, 0.0, 1.613351083616577E9, 2021-02-14 20:04:43.616
65.0, 9.7686185836792, 17.815013885498047, 10.9130277633667, 15.341069221496582, 0.09600000083446503, 0.01600000075995922, 1.040000081062317, 0.0, 0.0, 0.0, 0.0, 0.0, 1.613351083630151E9, 2021-02-14 20:04:43.630
65.0, 16.97166633605957, 24.535614013671875, 23.632427215576172, 29.507810592651367, 0.09600000083446503, 0.01600000075995922, 1.040000081062317, 0.0, 0.0, 0.0, 0.0, 0.0, 1.613351083630151E9, 2021-02-14 20:04:43.630
66.0, 15.995552062988281, 21.872804641723633, 20.614328384399414, 17.36809539794922, 0.09600000083446503, 0.01600000075995922, 1.040000081062317, 0.0, 0.0, 0.0, 0.0, 0.0, 1.613351083662199E9, 2021-02-14 20:04:43.662
66.0, 9.383408546447754, 9.265602111816406, 7.232966423034668, 6.645802021026611, 0.09600000083446503, 0.01600000075995922, 1.040000081062317, 0.0, 0.0, 0.0, 0.0, 0.0, 1.613351083662199E9, 2021-02-14 20:04:43.662
67.0, 15.0680570602417, 20.50400161743164, 15.991811752319336, 18.837875366210938, 0.09600000083446503, 0.01600000075995922, 1.040000081062317, 0.0, 0.0, 0.0, 0.0, 0.0, 1.613351083662951E9, 2021-02-14 20:04:43.662
67.0, 21.040678024291992, 28.7916202545166, 30.308149337768555, 29.33577537536621, 0.09600000083446503, 0.01600000075995922, 1.040000081062317, 0.0, 0.0, 0.0, 0.0, 0.0, 1.613351083662951E9, 2021-02-14 20:04:43.662
68.0, 7.476059913635254, 8.895352363586426, 2.8909425735473633, 6.757999420166016, 0.09600000083446503, 0.01600000075995922, 1.040000081062317, 0.0, 0.0, 0.0, 0.0, 0.0, 1.613351083663683E9, 2021-02-14 20:04:43.663
68.0, 17.633628845214844, 20.021554946899414, 14.963339805603027, 20.075782775878906, 0.09600000083446503, 0.01600000075995922, 1.040000081062317, 0.0, 0.0, 0.0, 0.0, 0.0, 1.613351083663683E9, 2021-02-14 20:04:43.663
69.0, 17.872982025146484, 29.76773452758789, 27.353628158569336, 27.73883819580078, 0.09600000083446503, 0.01600000075995922, 1.040000081062317, 0.0, 0.0, 0.0, 0.0, 0.0, 1.613351083664457E9, 2021-02-14 20:04:43.664
69.0, 9.660161972045898, 11.786294937133789, 7.001092910766602, 9.813497543334961, 0.09600000083446503, 0.01600000075995922, 1.040000081062317, 0.0, 0.0, 0.0, 0.0, 0.0, 1.613351083664457E9, 2021-02-14 20:04:43.664
70.0, 14.619269371032715, 19.079099655151367, 18.778038024902344, 14.249018669128418, 0.09600000083446503, 0.01600000075995922, 1.040000081062317, 0.0, 0.0, 0.0, 0.0, 0.0, 1.613351083690845E9, 2021-02-14 20:04:43.690
70.0, 19.107149124145508, 33.14486312866211, 26.98337745666504, 27.49200439453125, 0.09600000083446503, 0.01600000075995922, 1.040000081062317, 0.0, 0.0, 0.0, 0.0, 0.0, 1.613351083690845E9, 2021-02-14 20:04:43.690
71.0, 12.031258583068848, 19.6774845123291, 15.666440963745117, 14.177960395812988, 0.09600000083446503, 0.01600000075995922, 1.040000081062317, 0.0, 0.0, 0.0, 0.0, 0.0, 1.613351083691598E9, 2021-02-14 20:04:43.691
71.0, 6.780438423156738, 11.883532524108887, 4.072751045227051, 5.665948390960693, 0.09600000083446503, 0.01600000075995922, 1.040000081062317, 0.0, 0.0, 0.0, 0.0, 0.0, 1.613351083691598E9, 2021-02-14 20:04:43.691
72.0, 16.833290100097656, 24.90586280822754, 23.108840942382812, 20.853681564331055, 0.08000000566244125, 0.01600000075995922, 1.040000081062317, 0.0, 0.0, 0.0, 0.0, 0.0, 1.613351083705843E9, 2021-02-14 20:04:43.705
72.0, 25.794090270996094, 34.311710357666016, 28.793489456176758, 32.17061996459961, 0.08000000566244125, 0.01600000075995922, 1.040000081062317, 0.0, 0.0, 0.0, 0.0, 0.0, 1.613351083705843E9, 2021-02-14 20:04:43.705
73.0, 13.295344352722168, 11.229049682617188, 7.008572578430176, 6.761739253997803, 0.08000000566244125, 0.01600000075995922, 1.040000081062317, 0.0, 0.0, 0.0, 0.0, 0.0, 1.613351083706595E9, 2021-02-14 20:04:43.706
73.0, 18.23575210571289, 24.393497467041016, 14.630488395690918, 19.38764190673828, 0.08000000566244125, 0.01600000075995922, 1.040000081062317, 0.0, 0.0, 0.0, 0.0, 0.0, 1.613351083706595E9, 2021-02-14 20:04:43.706
74.0, 18.73689842224121, 27.35175895690918, 26.272796630859375, 30.816776275634766, 0.08000000566244125, 0.01600000075995922, 1.040000081062317, 0.0, 0.0, 0.0, 0.0, 0.0, 1.613351083720166E9, 2021-02-14 20:04:43.720
74.0, 13.702993392944336, 16.29287338256836, 10.662454605102539, 9.450727462768555, 0.08000000566244125, 0.01600000075995922, 1.040000081062317, 0.0, 0.0, 0.0, 0.0, 0.0, 1.613351083720166E9, 2021-02-14 20:04:43.720
75.0, 18.938854217529297, 23.4921817779541, 11.833043098449707, 16.4854793548584, 0.08000000566244125, 0.01600000075995922, 1.040000081062317, 0.0, 0.0, 0.0, 0.0, 0.0, 1.613351083735828E9, 2021-02-14 20:04:43.735
75.0, 23.808202743530273, 27.864124298095703, 22.798429489135742, 22.360862731933594, 0.08000000566244125, 0.01600000075995922, 1.040000081062317, 0.0, 0.0, 0.0, 0.0, 0.0, 1.613351083735828E9, 2021-02-14 20:04:43.735
76.0, 13.115829467773438, 18.85844612121582, 12.498745918273926, 13.953566551208496, 0.08000000566244125, 0.01600000075995922, 1.040000081062317, 0.0, 0.0, 0.0, 0.0, 0.0, 1.613351083736555E9, 2021-02-14 20:04:43.736
76.0, 9.985532760620117, 13.349573135375977, 8.04078483581543, 8.310057640075684, 0.08000000566244125, 0.01600000075995922, 1.040000081062317, 0.0, 0.0, 0.0, 0.0, 0.0, 1.613351083736555E9, 2021-02-14 20:04:43.736
77.0, 16.975406646728516, 20.960269927978516, 15.913274765014648, 21.983131408691406, 0.08000000566244125, 0.01600000075995922, 1.040000081062317, 0.0, 0.0, 0.0, 0.0, 0.0, 1.613351083750175E9, 2021-02-14 20:04:43.750
77.0, 18.05997657775879, 27.579893112182617, 29.631227493286133, 30.588642120361328, 0.08000000566244125, 0.01600000075995922, 1.040000081062317, 0.0, 0.0, 0.0, 0.0, 0.0, 1.613351083750175E9, 2021-02-14 20:04:43.750
78.0, 9.031858444213867, 7.167518138885498, 1.9410080909729004, 2.0270256996154785, 0.08000000566244125, 0.01600000075995922, 1.040000081062317, 0.0, 0.0, 0.0, 0.0, 0.0, 1.613351083765832E9, 2021-02-14 20:04:43.765
78.0, 12.581023216247559, 23.37250518798828, 19.828948974609375, 25.63327407836914, 0.08000000566244125, 0.01600000075995922, 1.040000081062317, 0.0, 0.0, 0.0, 0.0, 0.0, 1.613351083765832E9, 2021-02-14 20:04:43.765
79.0, 18.32176971435547, 32.8531494140625, 30.29693031311035, 26.414913177490234, 0.08000000566244125, 0.01600000075995922, 1.040000081062317, 0.0, 0.0, 0.0, 0.0, 0.0, 1.613351083766584E9, 2021-02-14 20:04:43.766
79.0, 14.910981178283691, 14.587479591369629, 7.6219162940979, 9.510565757751465, 0.08000000566244125, 0.01600000075995922, 1.040000081062317, 0.0, 0.0, 0.0, 0.0, 0.0, 1.613351083766584E9, 2021-02-14 20:04:43.766
80.0, 16.522878646850586, 20.152450561523438, 15.763678550720215, 18.071197509765625, 0.08000000566244125, 0.01600000075995922, 1.040000081062317, 0.0, 0.0, 0.0, 0.0, 0.0, 1.613351083780137E9, 2021-02-14 20:04:43.780
80.0, 21.074337005615234, 25.29481315612793, 22.5478572845459, 24.612281799316406, 0.08000000566244125, 0.01600000075995922, 1.040000081062317, 0.0, 0.0, 0.0, 0.0, 0.0, 1.613351083780137E9, 2021-02-14 20:04:43.780
81.0, 21.534343719482422, 23.14811134338379, 15.621562004089355, 21.343608856201172, 0.08000000566244125, 0.01600000075995922, 1.040000081062317, 0.0, 0.0, 0.0, 0.0, 0.0, 1.613351083812206E9, 2021-02-14 20:04:43.812
81.0, 11.10376262664795, 14.916590690612793, 7.614436149597168, 1.3725433349609375, 0.08000000566244125, 0.01600000075995922, 1.040000081062317, 0.0, 0.0, 0.0, 0.0, 0.0, 1.613351083812206E9, 2021-02-14 20:04:43.812
82.0, 16.4854793548584, 22.661924362182617, 18.31429100036621, 25.016191482543945, 0.08000000566244125, 0.01600000075995922, 1.040000081062317, 0.0, 0.0, 0.0, 0.0, 0.0, 1.613351083812932E9, 2021-02-14 20:04:43.812
82.0, 17.29703712463379, 28.02120018005371, 29.485370635986328, 25.263023376464844, 0.08000000566244125, 0.01600000075995922, 1.040000081062317, 0.0, 0.0, 0.0, 0.0, 0.0, 1.613351083812932E9, 2021-02-14 20:04:43.812
83.0, 5.467733860015869, 7.025402069091797, 2.176621675491333, 2.96574068069458, 0.08000000566244125, 0.01600000075995922, 1.040000081062317, 0.0, 0.0, 0.0, 0.0, 0.0, 1.613351083813655E9, 2021-02-14 20:04:43.813
83.0, 15.064316749572754, 19.015522003173828, 15.198953628540039, 22.944286346435547, 0.08000000566244125, 0.01600000075995922, 1.040000081062317, 0.0, 0.0, 0.0, 0.0, 0.0, 1.613351083813655E9, 2021-02-14 20:04:43.813
84.0, 22.091588973999023, 31.776060104370117, 29.7546443939209, 31.650774002075195, 0.08000000566244125, 0.01600000075995922, 1.040000081062317, 0.0, 0.0, 0.0, 0.0, 0.0, 1.613351083814381E9, 2021-02-14 20:04:43.814
84.0, 11.10376262664795, 14.987648963928223, 9.338530540466309, 10.793351173400879, 0.08000000566244125, 0.01600000075995922, 1.040000081062317, 0.0, 0.0, 0.0, 0.0, 0.0, 1.613351083814381E9, 2021-02-14 20:04:43.814
85.0, 11.16360092163086, 15.52619457244873, 15.030657768249512, 22.648834228515625, 0.08000000566244125, 0.01600000075995922, 1.040000081062317, 0.0, 0.0, 0.0, 0.0, 0.0, 1.613351083825081E9, 2021-02-14 20:04:43.825
85.0, 19.42877960205078, 21.678329467773438, 25.405139923095703, 21.590442657470703, 0.08000000566244125, 0.01600000075995922, 1.040000081062317, 0.0, 0.0, 0.0, 0.0, 0.0, 1.613351083825081E9, 2021-02-14 20:04:43.825
86.0, 13.299084663391113, 24.558053970336914, 15.984332084655762, 22.102807998657227, 0.08000000566244125, 0.01600000075995922, 1.040000081062317, 0.0, 0.0, 0.0, 0.0, 0.0, 1.613351083840142E9, 2021-02-14 20:04:43.840
86.0, 8.654128074645996, 13.087779998779297, 8.837383270263672, 7.0534515380859375, 0.08000000566244125, 0.01600000075995922, 1.040000081062317, 0.0, 0.0, 0.0, 0.0, 0.0, 1.613351083840142E9, 2021-02-14 20:04:43.840
87.0, 21.481985092163086, 23.14811134338379, 21.21645164489746, 15.909534454345703, 0.08000000566244125, 0.01600000075995922, 1.040000081062317, 0.0, 0.0, 0.0, 0.0, 0.0, 1.613351083855715E9, 2021-02-14 20:04:43.855
87.0, 19.417560577392578, 30.564332962036133, 26.224178314208984, 28.097867965698242, 0.08000000566244125, 0.01600000075995922, 1.040000081062317, 0.0, 0.0, 0.0, 0.0, 0.0, 1.613351083855715E9, 2021-02-14 20:04:43.855
88.0, 7.722893238067627, 8.151111602783203, 2.090604066848755, -0.4338283836841583, 0.08000000566244125, 0.01600000075995922, 1.040000081062317, 0.0, 0.0, 0.0, 0.0, 0.0, 1.613351083856521E9, 2021-02-14 20:04:43.856
88.0, 12.932574272155762, 20.993928909301758, 16.807109832763672, 20.823762893676758, 0.08000000566244125, 0.01600000075995922, 1.040000081062317, 0.0, 0.0, 0.0, 0.0, 0.0, 1.613351083856521E9, 2021-02-14 20:04:43.856
89.0, 21.504425048828125, 30.253921508789062, 27.757537841796875, 31.59093475341797, 0.08000000566244125, 0.01600000075995922, 1.040000081062317, 0.0, 0.0, 0.0, 0.0, 0.0, 1.613351083870045E9, 2021-02-14 20:04:43.870
89.0, 16.698654174804688, 13.712343215942383, 9.319830894470215, 13.684293746948242, 0.08000000566244125, 0.01600000075995922, 1.040000081062317, 0.0, 0.0, 0.0, 0.0, 0.0, 1.613351083870045E9, 2021-02-14 20:04:43.870
90.0, 17.405494689941406, 18.948204040527344, 14.391135215759277, 16.855728149414062, 0.08000000566244125, 0.01600000075995922, 1.040000081062317, 0.0, 0.0, 0.0, 0.0, 0.0, 1.613351083885726E9, 2021-02-14 20:04:43.885
90.0, 15.902054786682129, 26.562639236450195, 23.983978271484375, 24.096176147460938, 0.08000000566244125, 0.01600000075995922, 1.040000081062317, 0.0, 0.0, 0.0, 0.0, 0.0, 1.613351083885726E9, 2021-02-14 20:04:43.885
91.0, 13.998445510864258, 24.65155029296875, 21.280031204223633, 23.43047332763672, 0.08000000566244125, 0.01600000075995922, 1.040000081062317, 0.0, 0.0, 0.0, 0.0, 0.0, 1.613351083886436E9, 2021-02-14 20:04:43.886
91.0, 10.669934272766113, 14.789434432983398, 9.319830894470215, 6.200754165649414, 0.08000000566244125, 0.01600000075995922, 1.040000081062317, 0.0, 0.0, 0.0, 0.0, 0.0, 1.613351083886436E9, 2021-02-14 20:04:43.886
92.0, 16.515398025512695, 23.8736515045166, 17.13996124267578, 19.028610229492188, 0.08000000566244125, 0.01600000075995922, 1.040000081062317, 0.0, 0.0, 0.0, 0.0, 0.0, 1.613351083916425E9, 2021-02-14 20:04:43.916
92.0, 18.389087677001953, 28.507387161254883, 28.258684158325195, 33.99943161010742, 0.08000000566244125, 0.01600000075995922, 1.040000081062317, 0.0, 0.0, 0.0, 0.0, 0.0, 1.613351083916425E9, 2021-02-14 20:04:43.916
93.0, 10.636275291442871, 10.17813777923584, 2.7675259113311768, 3.2275335788726807, 0.08000000566244125, 0.01600000075995922, 1.040000081062317, 0.0, 0.0, 0.0, 0.0, 0.0, 1.613351083917194E9, 2021-02-14 20:04:43.917
93.0, 16.347103118896484, 19.89813804626465, 13.037291526794434, 22.274843215942383, 0.08000000566244125, 0.01600000075995922, 1.040000081062317, 0.0, 0.0, 0.0, 0.0, 0.0, 1.613351083917194E9, 2021-02-14 20:04:43.917
94.0, 16.706132888793945, 27.14606475830078, 24.604801177978516, 28.557876586914062, 0.08000000566244125, 0.01600000075995922, 1.040000081062317, 0.0, 0.0, 0.0, 0.0, 0.0, 1.613351083917939E9, 2021-02-14 20:04:43.917
94.0, 7.143208980560303, 7.515328884124756, 10.65123462677002, 5.924001693725586, 0.08000000566244125, 0.01600000075995922, 1.040000081062317, 0.0, 0.0, 0.0, 0.0, 0.0, 1.613351083917939E9, 2021-02-14 20:04:43.917
95.0, 11.571250915527344, 18.084285736083984, 14.110642433166504, 11.204740524291992, 0.08000000566244125, 0.01600000075995922, 1.040000081062317, 0.0, 0.0, 0.0, 0.0, 0.0, 1.613351083930223E9, 2021-02-14 20:04:43.930
95.0, 19.589595794677734, 32.0789909362793, 26.837522506713867, 26.624347686767578, 0.08000000566244125, 0.01600000075995922, 1.040000081062317, 0.0, 0.0, 0.0, 0.0, 0.0, 1.613351083930223E9, 2021-02-14 20:04:43.930
96.0, 14.361215591430664, 21.603532791137695, 19.181947708129883, 23.33697509765625, 0.08000000566244125, 0.01600000075995922, 1.040000081062317, 0.0, 0.0, 0.0, 0.0, 0.0, 1.613351083945807E9, 2021-02-14 20:04:43.945
96.0, 10.830750465393066, 10.634405136108398, 4.981546878814697, 8.519492149353027, 0.08000000566244125, 0.01600000075995922, 1.040000081062317, 0.0, 0.0, 0.0, 0.0, 0.0, 1.613351083945807E9, 2021-02-14 20:04:43.945
97.0, 15.217653274536133, 21.947603225708008, 17.06890296936035, 19.870088577270508, 0.08000000566244125, 0.01600000075995922, 1.040000081062317, 0.0, 0.0, 0.0, 0.0, 0.0, 1.613351083946716E9, 2021-02-14 20:04:43.946
97.0, 21.362308502197266, 27.87534523010254, 25.98856544494629, 29.634967803955078, 0.08000000566244125, 0.01600000075995922, 1.040000081062317, 0.0, 0.0, 0.0, 0.0, 0.0, 1.613351083946716E9, 2021-02-14 20:04:43.946
98.0, 9.727479934692383, 10.383831977844238, 3.702501058578491, 3.399569034576416, 0.08000000566244125, 0.01600000075995922, 1.040000081062317, 0.0, 0.0, 0.0, 0.0, 0.0, 1.613351083977198E9, 2021-02-14 20:04:43.977
98.0, 16.107749938964844, 20.62367820739746, 16.507919311523438, 19.88130760192871, 0.08000000566244125, 0.01600000075995922, 1.040000081062317, 0.0, 0.0, 0.0, 0.0, 0.0, 1.613351083977198E9, 2021-02-14 20:04:43.977
99.0, 16.51165771484375, 26.30458641052246, 26.126941680908203, 30.345548629760742, 0.08000000566244125, 0.01600000075995922, 1.040000081062317, 0.0, 0.0, 0.0, 0.0, 0.0, 1.613351083977961E9, 2021-02-14 20:04:43.977
99.0, 11.952720642089844, 17.250288009643555, 10.834489822387695, 10.841970443725586, 0.08000000566244125, 0.01600000075995922, 1.040000081062317, 0.0, 0.0, 0.0, 0.0, 0.0, 1.613351083977961E9, 2021-02-14 20:04:43.977
100.0, 16.111488342285156, 18.514373779296875, 16.347103118896484, 12.753058433532715, 0.08000000566244125, 0.01600000075995922, 1.040000081062317, 0.0, 0.0, 0.0, 0.0, 0.0, 1.613351083978787E9, 2021-02-14 20:04:43.978
100.0, 22.862009048461914, 27.73322868347168, 25.50611686706543, 23.250957489013672, 0.08000000566244125, 0.01600000075995922, 1.040000081062317, 0.0, 0.0, 0.0, 0.0, 0.0, 1.613351083978787E9, 2021-02-14 20:04:43.978
0.0, 13.553397178649902, 20.810672760009766, 15.773028373718262, 21.682069778442383, 0.08000000566244125, 0.01600000075995922, 1.040000081062317, 0.0, 0.0, 0.0, 0.0, 0.0, 1.613351083979394E9, 2021-02-14 20:04:43.979
1.0, 8.86356258392334, 11.475883483886719, 3.4537975788116455, 5.065694332122803, 0.08000000566244125, 0.01600000075995922, 1.040000081062317, 0.0, 0.0, 0.0, 0.0, 0.0, 1.613351083990105E9, 2021-02-14 20:04:43.990
1.0, 16.616374969482422, 23.81755256652832, 23.664216995239258, 20.189849853515625, 0.08000000566244125, 0.01600000075995922, 1.040000081062317, 0.0, 0.0, 0.0, 0.0, 0.0, 1.613351083990105E9, 2021-02-14 20:04:43.990
2.0, 21.64280128479004, 27.60607147216797, 24.763748168945312, 27.71826934814453, 0.08000000566244125, 0.01600000075995922, 1.040000081062317, 0.0, 0.0, 0.0, 0.0, 0.0, 1.613351084005148E9, 2021-02-14 20:04:44.005
2.0, 15.210172653198242, 13.656244277954102, 6.43823766708374, 3.8352673053741455, 0.08000000566244125, 0.01600000075995922, 1.040000081062317, 0.0, 0.0, 0.0, 0.0, 0.0, 1.613351084005148E9, 2021-02-14 20:04:44.005
3.0, 18.789257049560547, 23.731534957885742, 13.764701843261719, 16.019861221313477, 0.08000000566244125, 0.01600000075995922, 1.040000081062317, 0.0, 0.0, 0.0, 0.0, 0.0, 1.613351084020826E9, 2021-02-14 20:04:44.020
3.0, 18.30681037902832, 30.829864501953125, 27.946401596069336, 30.23896026611328, 0.08000000566244125, 0.01600000075995922, 1.040000081062317, 0.0, 0.0, 0.0, 0.0, 0.0, 1.613351084020826E9, 2021-02-14 20:04:44.020
4.0, 13.32900333404541, 14.183570861816406, 10.338953018188477, 7.298414707183838, 0.08000000566244125, 0.01600000075995922, 1.040000081062317, 0.0, 0.0, 0.0, 0.0, 0.0, 1.613351084021535E9, 2021-02-14 20:04:44.021
4.0, 14.970819473266602, 19.842039108276367, 13.203717231750488, 18.559253692626953, 0.08000000566244125, 0.01600000075995922, 1.040000081062317, 0.0, 0.0, 0.0, 0.0, 0.0, 1.613351084021535E9, 2021-02-14 20:04:44.021
5.0, 17.398014068603516, 23.473482131958008, 21.865325927734375, 25.762300491333008, 0.08000000566244125, 0.01600000075995922, 1.040000081062317, 0.0, 0.0, 0.0, 0.0, 0.0, 1.613351084035132E9, 2021-02-14 20:04:44.035
5.0, 12.738099098205566, 20.870512008666992, 16.958576202392578, 22.972335815429688, 0.08000000566244125, 0.01600000075995922, 1.040000081062317, 0.0, 0.0, 0.0, 0.0, 0.0, 1.613351084035132E9, 2021-02-14 20:04:44.035
6.0, 15.415867805480957, 18.417137145996094, 11.662878036499023, 11.341246604919434, 0.08000000566244125, 0.01600000075995922, 1.040000081062317, 0.0, 0.0, 0.0, 0.0, 0.0, 1.613351084050762E9, 2021-02-14 20:04:44.050
6.0, 13.856328964233398, 19.075359344482422, 18.37225914001465, 21.84662628173828, 0.08000000566244125, 0.01600000075995922, 1.040000081062317, 0.0, 0.0, 0.0, 0.0, 0.0, 1.613351084050762E9, 2021-02-14 20:04:44.050
7.0, 17.169879913330078, 32.71851348876953, 28.60088539123535, 31.64516258239746, 0.08000000566244125, 0.01600000075995922, 1.040000081062317, 0.0, 0.0, 0.0, 0.0, 0.0, 1.613351084051478E9, 2021-02-14 20:04:44.051
7.0, 11.81434440612793, 10.993435859680176, 5.634159088134766, 3.7716891765594482, 0.08000000566244125, 0.01600000075995922, 1.040000081062317, 0.0, 0.0, 0.0, 0.0, 0.0, 1.613351084051478E9, 2021-02-14 20:04:44.051
8.0, 20.748964309692383, 24.299999237060547, 15.08862590789795, 20.889211654663086, 0.08000000566244125, 0.01600000075995922, 1.040000081062317, 0.0, 0.0, 0.0, 0.0, 0.0, 1.613351084081528E9, 2021-02-14 20:04:44.081
8.0, 15.400908470153809, 26.85061264038086, 31.170196533203125, 30.50075340270996, 0.08000000566244125, 0.01600000075995922, 1.040000081062317, 0.0, 0.0, 0.0, 0.0, 0.0, 1.613351084081528E9, 2021-02-14 20:04:44.081
9.0, 11.92280101776123, 10.866279602050781, 9.632112503051758, 9.863986015319824, 0.08000000566244125, 0.01600000075995922, 1.040000081062317, 0.0, 0.0, 0.0, 0.0, 0.0, 1.613351084082262E9, 2021-02-14 20:04:44.082
9.0, 19.645694732666016, 23.462263107299805, 17.61305809020996, 16.375152587890625, 0.08000000566244125, 0.01600000075995922, 1.040000081062317, 0.0, 0.0, 0.0, 0.0, 0.0, 1.613351084082262E9, 2021-02-14 20:04:44.082
10.0, 22.577775955200195, 27.980060577392578, 26.63743782043457, 21.798006057739258, 0.08000000566244125, 0.01600000075995922, 1.040000081062317, 0.0, 0.0, 0.0, 0.0, 0.0, 1.613351084082986E9, 2021-02-14 20:04:44.082
10.0, 14.252758979797363, 21.251981735229492, 20.287086486816406, 22.396390914916992, 0.08000000566244125, 0.01600000075995922, 1.040000081062317, 0.0, 0.0, 0.0, 0.0, 0.0, 1.613351084082986E9, 2021-02-14 20:04:44.082
11.0, 5.501392841339111, 11.20287036895752, 7.866879463195801, 6.879546165466309, 0.08000000566244125, 0.01600000075995922, 1.040000081062317, 0.0, 0.0, 0.0, 0.0, 0.0, 1.613351084095123E9, 2021-02-14 20:04:44.095
11.0, 12.921354293823242, 17.31012725830078, 17.77013397216797, 19.277315139770508, 0.08000000566244125, 0.01600000075995922, 1.040000081062317, 0.0, 0.0, 0.0, 0.0, 0.0, 1.613351084095123E9, 2021-02-14 20:04:44.095
12.0, 19.256744384765625, 30.942062377929688, 27.650949478149414, 28.428850173950195, 0.08000000566244125, 0.01600000075995922, 1.040000081062317, 0.0, 0.0, 0.0, 0.0, 0.0, 1.613351084110812E9, 2021-02-14 20:04:44.110
12.0, 10.920507431030273, 10.114559173583984, 5.5219621658325195, 6.359699726104736, 0.08000000566244125, 0.01600000075995922, 1.040000081062317, 0.0, 0.0, 0.0, 0.0, 0.0, 1.613351084110812E9, 2021-02-14 20:04:44.110
13.0, 15.086756706237793, 21.35295867919922, 15.709449768066406, 18.776166915893555, 0.08000000566244125, 0.01600000075995922, 1.040000081062317, 0.0, 0.0, 0.0, 0.0, 0.0, 1.613351084111534E9, 2021-02-14 20:04:44.111
13.0, 16.597675323486328, 28.716821670532227, 27.175983428955078, 30.95328140258789, 0.08000000566244125, 0.01600000075995922, 1.040000081062317, 0.0, 0.0, 0.0, 0.0, 0.0, 1.613351084111534E9, 2021-02-14 20:04:44.111
14.0, 9.327310562133789, 14.505202293395996, 9.860246658325195, 5.9258713722229, 0.08000000566244125, 0.01600000075995922, 1.040000081062317, 0.0, 0.0, 0.0, 0.0, 0.0, 1.613351084125131E9, 2021-02-14 20:04:44.125
14.0, 17.772005081176758, 17.601839065551758, 11.902231216430664, 15.46635627746582, 0.08000000566244125, 0.01600000075995922, 1.040000081062317, 0.0, 0.0, 0.0, 0.0, 0.0, 1.613351084125131E9, 2021-02-14 20:04:44.125
15.0, 19.746671676635742, 24.344879150390625, 22.976076126098633, 26.951589584350586, 0.08000000566244125, 0.01600000075995922, 1.040000081062317, 0.0, 0.0, 0.0, 0.0, 0.0, 1.613351084140801E9, 2021-02-14 20:04:44.140
15.0, 19.095930099487305, 22.422569274902344, 18.043148040771484, 20.537660598754883, 0.08000000566244125, 0.01600000075995922, 1.040000081062317, 0.0, 0.0, 0.0, 0.0, 0.0, 1.613351084140801E9, 2021-02-14 20:04:44.140
16.0, 9.951873779296875, 12.006948471069336, 5.4920430183410645, 4.1045403480529785, 0.08000000566244125, 0.01600000075995922, 1.040000081062317, 0.0, 0.0, 0.0, 0.0, 0.0, 1.613351084141536E9, 2021-02-14 20:04:44.141
16.0, 16.111488342285156, 15.372859001159668, 15.062447547912598, 19.411951065063477, 0.08000000566244125, 0.01600000075995922, 1.040000081062317, 0.0, 0.0, 0.0, 0.0, 0.0, 1.613351084141536E9, 2021-02-14 20:04:44.141
17.0, 20.176759719848633, 25.291072845458984, 25.575305938720703, 28.55974578857422, 0.08000000566244125, 0.01600000075995922, 1.040000081062317, 0.0, 0.0, 0.0, 0.0, 0.0, 1.613351084155174E9, 2021-02-14 20:04:44.155
17.0, 14.86610221862793, 16.408811569213867, 7.111419677734375, 9.10478687286377, 0.08000000566244125, 0.01600000075995922, 1.040000081062317, 0.0, 0.0, 0.0, 0.0, 0.0, 1.613351084155174E9, 2021-02-14 20:04:44.155
18.0, 20.40489387512207, 21.72694969177246, 15.829126358032227, 18.85844612121582, 0.08000000566244125, 0.01600000075995922, 1.040000081062317, 0.0, 0.0, 0.0, 0.0, 0.0, 1.613351084170867E9, 2021-02-14 20:04:44.170
18.0, 13.957306861877441, 26.330764770507812, 24.670249938964844, 23.79137420654297, 0.08000000566244125, 0.01600000075995922, 1.040000081062317, 0.0, 0.0, 0.0, 0.0, 0.0, 1.613351084170867E9, 2021-02-14 20:04:44.170
19.0, 8.60925006866455, 17.654197692871094, 6.808487892150879, 9.321701049804688, 0.08000000566244125, 0.01600000075995922, 1.040000081062317, 0.0, 0.0, 0.0, 0.0, 0.0, 1.613351084171797E9, 2021-02-14 20:04:44.171
19.0, 15.490665435791016, 21.47263526916504, 14.609919548034668, 14.766995429992676, 0.08000000566244125, 0.01600000075995922, 1.040000081062317, 0.0, 0.0, 0.0, 0.0, 0.0, 1.613351084171797E9, 2021-02-14 20:04:44.171
20.0, 18.127294540405273, 24.82732582092285, 21.079946517944336, 23.518360137939453, 0.08000000566244125, 0.01600000075995922, 1.040000081062317, 0.0, 0.0, 0.0, 0.0, 0.0, 1.6133510841851E9, 2021-02-14 20:04:44.185
20.0, 15.04561710357666, 26.054012298583984, 21.031328201293945, 20.466602325439453, 0.08000000566244125, 0.01600000075995922, 1.040000081062317, 0.0, 0.0, 0.0, 0.0, 0.0, 1.6133510841851E9, 2021-02-14 20:04:44.185
21.0, 10.157567977905273, 11.924671173095703, 5.215290546417236, 11.090673446655273, 0.08000000566244125, 0.01600000075995922, 1.040000081062317, 0.0, 0.0, 0.0, 0.0, 0.0, 1.613351084200567E9, 2021-02-14 20:04:44.200
21.0, 17.82062339782715, 25.163917541503906, 22.613304138183594, 24.352357864379883, 0.08000000566244125, 0.01600000075995922, 1.040000081062317, 0.0, 0.0, 0.0, 0.0, 0.0, 1.613351084200567E9, 2021-02-14 20:04:44.200
22.0, 22.865747451782227, 33.20096206665039, 28.578445434570312, 31.028079986572266, 0.08000000566244125, 0.01600000075995922, 1.040000081062317, 0.0, 0.0, 0.0, 0.0, 0.0, 1.613351084215797E9, 2021-02-14 20:04:44.215
22.0, 11.354336738586426, 7.27223539352417, 2.6384994983673096, 5.510742664337158, 0.08000000566244125, 0.01600000075995922, 1.040000081062317, 0.0, 0.0, 0.0, 0.0, 0.0, 1.613351084215797E9, 2021-02-14 20:04:44.215
23.0, 10.946686744689941, 22.014921188354492, 17.949649810791016, 17.455982208251953, 0.08000000566244125, 0.01600000075995922, 1.040000081062317, 0.0, 0.0, 0.0, 0.0, 0.0, 1.613351084216503E9, 2021-02-14 20:04:44.216
23.0, 14.910981178283691, 26.506540298461914, 28.0286808013916, 30.6877498626709, 0.08000000566244125, 0.01600000075995922, 1.040000081062317, 0.0, 0.0, 0.0, 0.0, 0.0, 1.613351084216503E9, 2021-02-14 20:04:44.216
24.0, 11.444093704223633, 11.187911033630371, 7.519068717956543, 8.71209716796875, 0.08000000566244125, 0.01600000075995922, 1.040000081062317, 0.0, 0.0, 0.0, 0.0, 0.0, 1.613351084261209E9, 2021-02-14 20:04:44.261
24.0, 15.49814510345459, 17.0371150970459, 18.458276748657227, 11.70401668548584, 0.08000000566244125, 0.01600000075995922, 1.040000081062317, 0.0, 0.0, 0.0, 0.0, 0.0, 1.613351084261209E9, 2021-02-14 20:04:44.261
25.0, 19.20438575744629, 24.644071578979492, 22.10841941833496, 27.490135192871094, 0.08000000566244125, 0.01600000075995922, 1.040000081062317, 0.0, 0.0, 0.0, 0.0, 0.0, 1.613351084261933E9, 2021-02-14 20:04:44.261
25.0, 14.817483901977539, 21.753128051757812, 15.578553199768066, 18.82852554321289, 0.08000000566244125, 0.01600000075995922, 1.040000081062317, 0.0, 0.0, 0.0, 0.0, 0.0, 1.613351084261933E9, 2021-02-14 20:04:44.261
26.0, 10.606356620788574, 14.662278175354004, 6.352220058441162, 6.9319047927856445, 0.08000000566244125, 0.01600000075995922, 1.040000081062317, 0.0, 0.0, 0.0, 0.0, 0.0, 1.613351084278772E9, 2021-02-14 20:04:44.278
26.0, 15.872135162353516, 25.511728286743164, 18.806087493896484, 24.026987075805664, 0.08000000566244125, 0.01600000075995922, 1.040000081062317, 0.0, 0.0, 0.0, 0.0, 0.0, 1.613351084278772E9, 2021-02-14 20:04:44.278
27.0, 20.846202850341797, 26.457921981811523, 23.50714111328125, 28.772920608520508, 0.08000000566244125, 0.01600000075995922, 1.040000081062317, 0.0, 0.0, 0.0, 0.0, 0.0, 1.613351084279264E9, 2021-02-14 20:04:44.279
27.0, 11.971419334411621, 8.33062744140625, 4.467310428619385, 3.8876259326934814, 0.08000000566244125, 0.01600000075995922, 1.040000081062317, 0.0, 0.0, 0.0, 0.0, 0.0, 1.613351084279264E9, 2021-02-14 20:04:44.279
28.0, 16.05912971496582, 20.4404239654541, 16.064741134643555, 17.852413177490234, 0.08000000566244125, 0.01600000075995922, 1.040000081062317, 0.0, 0.0, 0.0, 0.0, 0.0, 1.613351084279985E9, 2021-02-14 20:04:44.279
28.0, 16.092788696289062, 25.605224609375, 28.264293670654297, 35.037254333496094, 0.08000000566244125, 0.01600000075995922, 1.040000081062317, 0.0, 0.0, 0.0, 0.0, 0.0, 1.613351084279985E9, 2021-02-14 20:04:44.279
29.0, 11.111242294311523, 17.474681854248047, 9.007549285888672, 14.464062690734863, 0.08000000566244125, 0.01600000075995922, 1.040000081062317, 0.0, 0.0, 0.0, 0.0, 0.0, 1.613351084280771E9, 2021-02-14 20:04:44.280
29.0, 16.92304801940918, 25.41448974609375, 11.356205940246582, 12.078006744384766, 0.08000000566244125, 0.01600000075995922, 1.040000081062317, 0.0, 0.0, 0.0, 0.0, 0.0, 1.613351084280771E9, 2021-02-14 20:04:44.280
30.0, 19.5484561920166, 28.129657745361328, 22.317853927612305, 25.69872283935547, 0.08000000566244125, 0.01600000075995922, 1.040000081062317, 0.0, 0.0, 0.0, 0.0, 0.0, 1.613351084307232E9, 2021-02-14 20:04:44.307
30.0, 19.645694732666016, 20.612459182739258, 19.21747589111328, 16.954835891723633, 0.08000000566244125, 0.01600000075995922, 1.040000081062317, 0.0, 0.0, 0.0, 0.0, 0.0, 1.613351084307232E9, 2021-02-14 20:04:44.307
31.0, 7.591997146606445, 9.755529403686523, 9.740569114685059, 5.798715114593506, 0.08000000566244125, 0.01600000075995922, 1.040000081062317, 0.0, 0.0, 0.0, 0.0, 0.0, 1.613351084307962E9, 2021-02-14 20:04:44.307
31.0, 13.669334411621094, 27.890304565429688, 22.430049896240234, 21.532474517822266, 0.08000000566244125, 0.01600000075995922, 1.040000081062317, 0.0, 0.0, 0.0, 0.0, 0.0, 1.613351084307962E9, 2021-02-14 20:04:44.307
32.0, 22.5478572845459, 28.944955825805664, 27.800546646118164, 28.48120880126953, 0.08000000566244125, 0.01600000075995922, 1.040000081062317, 0.0, 0.0, 0.0, 0.0, 0.0, 1.613351084308788E9, 2021-02-14 20:04:44.308
32.0, 10.841970443725586, 13.458029747009277, 2.5300424098968506, 6.636452674865723, 0.08000000566244125, 0.01600000075995922, 1.040000081062317, 0.0, 0.0, 0.0, 0.0, 0.0, 1.613351084308788E9, 2021-02-14 20:04:44.308
33.0, 13.71047306060791, 20.287086486816406, 19.236175537109375, 25.990434646606445, 0.08000000566244125, 0.01600000075995922, 1.040000081062317, 0.0, 0.0, 0.0, 0.0, 0.0, 1.613351084309434E9, 2021-02-14 20:04:44.309
33.0, 19.42504119873047, 27.299400329589844, 28.80657958984375, 28.02120018005371, 0.08000000566244125, 0.01600000075995922, 1.040000081062317, 0.0, 0.0, 0.0, 0.0, 0.0, 1.613351084309434E9, 2021-02-14 20:04:44.309
34.0, 11.15986156463623, 13.282254219055176, 10.092120170593262, 10.234235763549805, 0.08000000566244125, 0.01600000075995922, 1.040000081062317, 0.0, 0.0, 0.0, 0.0, 0.0, 1.613351084320095E9, 2021-02-14 20:04:44.320
34.0, 18.246971130371094, 19.449350357055664, 11.662878036499023, 8.405425071716309, 0.08000000566244125, 0.01600000075995922, 1.040000081062317, 0.0, 0.0, 0.0, 0.0, 0.0, 1.613351084320095E9, 2021-02-14 20:04:44.320
35.0, 19.32406234741211, 27.508834838867188, 23.56324005126953, 22.740461349487305, 0.08000000566244125, 0.01600000075995922, 1.040000081062317, 0.0, 0.0, 0.0, 0.0, 0.0, 1.61335108436778E9, 2021-02-14 20:04:44.367
35.0, 12.753058433532715, 16.25173568725586, 15.941323280334473, 22.381431579589844, 0.08000000566244125, 0.01600000075995922, 1.040000081062317, 0.0, 0.0, 0.0, 0.0, 0.0, 1.61335108436778E9, 2021-02-14 20:04:44.367
36.0, 12.43516731262207, 10.978476524353027, 8.293228149414062, 4.3476338386535645, 0.08000000566244125, 0.01600000075995922, 1.040000081062317, 0.0, 0.0, 0.0, 0.0, 0.0, 1.613351084368501E9, 2021-02-14 20:04:44.368
36.0, 10.834489822387695, 22.295413970947266, 17.72899627685547, 20.365625381469727, 0.08000000566244125, 0.01600000075995922, 1.040000081062317, 0.0, 0.0, 0.0, 0.0, 0.0, 1.613351084368501E9, 2021-02-14 20:04:44.368
37.0, 19.78407096862793, 28.698122024536133, 28.095998764038086, 30.362377166748047, 0.08000000566244125, 0.01600000075995922, 1.040000081062317, 0.0, 0.0, 0.0, 0.0, 0.0, 1.613351084369275E9, 2021-02-14 20:04:44.369
37.0, 8.568110466003418, 8.412904739379883, 2.084994316101074, 7.130119323730469, 0.08000000566244125, 0.01600000075995922, 1.040000081062317, 0.0, 0.0, 0.0, 0.0, 0.0, 1.613351084369275E9, 2021-02-14 20:04:44.369
38.0, 17.843063354492188, 20.14497184753418, 14.086333274841309, 20.358144760131836, 0.08000000566244125, 0.01600000075995922, 1.040000081062317, 0.0, 0.0, 0.0, 0.0, 0.0, 1.613351084370043E9, 2021-02-14 20:04:44.370
38.0, 22.28606414794922, 30.938322067260742, 24.767486572265625, 31.196374893188477, 0.08000000566244125, 0.01600000075995922, 1.040000081062317, 0.0, 0.0, 0.0, 0.0, 0.0, 1.613351084370043E9, 2021-02-14 20:04:44.370
39.0, 11.156121253967285, 15.892704963684082, 6.614013195037842, 10.600746154785156, 0.08000000566244125, 0.01600000075995922, 1.040000081062317, 0.0, 0.0, 0.0, 0.0, 0.0, 1.61335108438082E9, 2021-02-14 20:04:44.380
39.0, 14.394874572753906, 19.89813804626465, 15.660831451416016, 17.411104202270508, 0.08000000566244125, 0.01600000075995922, 1.040000081062317, 0.0, 0.0, 0.0, 0.0, 0.0, 1.61335108438082E9, 2021-02-14 20:04:44.380
40.0, 21.078075408935547, 24.8011474609375, 24.165363311767578, 23.98584747314453, 0.08000000566244125, 0.01600000075995922, 1.040000081062317, 0.0, 0.0, 0.0, 0.0, 0.0, 1.613351084381581E9, 2021-02-14 20:04:44.381
40.0, 14.327556610107422, 24.703908920288086, 21.304340362548828, 16.075960159301758, 0.08000000566244125, 0.01600000075995922, 1.040000081062317, 0.0, 0.0, 0.0, 0.0, 0.0, 1.613351084381581E9, 2021-02-14 20:04:44.381
41.0, 13.261685371398926, 13.9292573928833, 7.578907489776611, 15.90766429901123, 0.08000000566244125, 0.01600000075995922, 1.040000081062317, 0.0, 0.0, 0.0, 0.0, 0.0, 1.613351084395114E9, 2021-02-14 20:04:44.395
41.0, 16.35084342956543, 25.728641510009766, 19.322193145751953, 21.857845306396484, 0.08000000566244125, 0.01600000075995922, 1.040000081062317, 0.0, 0.0, 0.0, 0.0, 0.0, 1.613351084395114E9, 2021-02-14 20:04:44.395
42.0, 20.46099281311035, 31.18889617919922, 27.60607147216797, 26.05775260925293, 0.08000000566244125, 0.01600000075995922, 1.040000081062317, 0.0, 0.0, 0.0, 0.0, 0.0, 1.61335108441062E9, 2021-02-14 20:04:44.410
42.0, 6.170835018157959, 7.926717758178711, 4.673005104064941, 2.3729665279388428, 0.08000000566244125, 0.01600000075995922, 1.040000081062317, 0.0, 0.0, 0.0, 0.0, 0.0, 1.61335108441062E9, 2021-02-14 20:04:44.410
43.0, 17.506471633911133, 21.248241424560547, 18.331119537353516, 15.829126358032227, 0.08000000566244125, 0.01600000075995922, 1.040000081062317, 0.0, 0.0, 0.0, 0.0, 0.0, 1.613351084425848E9, 2021-02-14 20:04:44.425
43.0, 19.956106185913086, 32.123870849609375, 27.28070068359375, 28.06608009338379, 0.08000000566244125, 0.01600000075995922, 1.040000081062317, 0.0, 0.0, 0.0, 0.0, 0.0, 1.613351084425848E9, 2021-02-14 20:04:44.425
44.0, 9.450727462768555, 13.962916374206543, 12.107926368713379, 15.03626823425293, 0.08000000566244125, 0.01600000075995922, 1.040000081062317, 0.0, 0.0, 0.0, 0.0, 0.0, 1.613351084426576E9, 2021-02-14 20:04:44.426
44.0, 17.45037269592285, 16.670604705810547, 9.620892524719238, 13.817060470581055, 0.08000000566244125, 0.01600000075995922, 1.040000081062317, 0.0, 0.0, 0.0, 0.0, 0.0, 1.613351084426576E9, 2021-02-14 20:04:44.426
45.0, 18.867795944213867, 24.79366683959961, 24.169103622436523, 26.715974807739258, 0.08000000566244125, 0.01600000075995922, 1.040000081062317, 0.0, 0.0, 0.0, 0.0, 0.0, 1.613351084440963E9, 2021-02-14 20:04:44.440
45.0, 18.17217445373535, 21.835405349731445, 18.869665145874023, 21.53621482849121, 0.08000000566244125, 0.01600000075995922, 1.040000081062317, 0.0, 0.0, 0.0, 0.0, 0.0, 1.613351084440963E9, 2021-02-14 20:04:44.440
46.0, 9.499345779418945, 11.838653564453125, 5.641639232635498, 3.951204299926758, 0.08000000566244125, 0.01600000075995922, 1.040000081062317, 0.0, 0.0, 0.0, 0.0, 0.0, 1.613351084441566E9, 2021-02-14 20:04:44.441
46.0, 16.8781681060791, 22.022401809692383, 21.38661766052246, 23.67169761657715, 0.08000000566244125, 0.01600000075995922, 1.040000081062317, 0.0, 0.0, 0.0, 0.0, 0.0, 1.613351084441566E9, 2021-02-14 20:04:44.441
47.0, 16.941747665405273, 29.62561798095703, 24.767486572265625, 32.157527923583984, 0.08000000566244125, 0.01600000075995922, 1.040000081062317, 0.0, 0.0, 0.0, 0.0, 0.0, 1.613351084455193E9, 2021-02-14 20:04:44.455
47.0, 12.225732803344727, 11.44970417022705, 4.422431468963623, 11.778815269470215, 0.08000000566244125, 0.01600000075995922, 1.040000081062317, 0.0, 0.0, 0.0, 0.0, 0.0, 1.613351084455193E9, 2021-02-14 20:04:44.455
48.0, 17.60744857788086, 22.486148834228516, 17.384925842285156, 19.916837692260742, 0.08000000566244125, 0.01600000075995922, 1.040000081062317, 0.0, 0.0, 0.0, 0.0, 0.0, 1.613351084471024E9, 2021-02-14 20:04:44.471
48.0, 16.384502410888672, 26.49532127380371, 25.451889038085938, 25.67628288269043, 0.08000000566244125, 0.01600000075995922, 1.040000081062317, 0.0, 0.0, 0.0, 0.0, 0.0, 1.613351084471024E9, 2021-02-14 20:04:44.471
49.0, 13.082170486450195, 14.363085746765137, 6.561654567718506, 12.298661231994629, 0.08000000566244125, 0.01600000075995922, 1.040000081062317, 0.0, 0.0, 0.0, 0.0, 0.0, 1.61335108447155E9, 2021-02-14 20:04:44.471
49.0, 10.868148803710938, 19.438129425048828, 18.712589263916016, 14.426664352416992, 0.08000000566244125, 0.01600000075995922, 1.040000081062317, 0.0, 0.0, 0.0, 0.0, 0.0, 1.61335108447155E9, 2021-02-14 20:04:44.471
50.0, 17.267118453979492, 27.078744888305664, 23.899829864501953, 19.23243522644043, 0.08000000566244125, 0.01600000075995922, 1.040000081062317, 0.0, 0.0, 0.0, 0.0, 0.0, 1.613351084485198E9, 2021-02-14 20:04:44.485
50.0, 14.054544448852539, 20.982707977294922, 21.4090576171875, 26.89923095703125, 0.08000000566244125, 0.01600000075995922, 1.040000081062317, 0.0, 0.0, 0.0, 0.0, 0.0, 1.613351084485198E9, 2021-02-14 20:04:44.485
51.0, 8.620469093322754, 16.820199966430664, 8.308187484741211, 7.118899345397949, 0.08000000566244125, 0.01600000075995922, 1.040000081062317, 0.0, 0.0, 0.0, 0.0, 0.0, 1.613351084500848E9, 2021-02-14 20:04:44.500
51.0, 15.37846851348877, 22.153297424316406, 18.218923568725586, 17.235328674316406, 0.08000000566244125, 0.01600000075995922, 1.040000081062317, 0.0, 0.0, 0.0, 0.0, 0.0, 1.613351084500848E9, 2021-02-14 20:04:44.500
52.0, 19.00617218017578, 24.703908920288086, 33.00648880004883, 29.543338775634766, 0.08000000566244125, 0.01600000075995922, 1.040000081062317, 0.0, 0.0, 0.0, 0.0, 0.0, 1.613351084501555E9, 2021-02-14 20:04:44.501
52.0, 6.612143039703369, 9.359099388122559, 2.9152519702911377, 1.4529510736465454, 0.08000000566244125, 0.01600000075995922, 1.040000081062317, 0.0, 0.0, 0.0, 0.0, 0.0, 1.613351084501555E9, 2021-02-14 20:04:44.501
53.0, 17.891681671142578, 21.745647430419922, 16.210596084594727, 22.287933349609375, 0.08000000566244125, 0.01600000075995922, 1.040000081062317, 0.0, 0.0, 0.0, 0.0, 0.0, 1.613351084515175E9, 2021-02-14 20:04:44.515
53.0, 24.118614196777344, 31.678823471069336, 24.980661392211914, 29.763994216918945, 0.08000000566244125, 0.01600000075995922, 1.040000081062317, 0.0, 0.0, 0.0, 0.0, 0.0, 1.613351084515175E9, 2021-02-14 20:04:44.515
54.0, 15.124155044555664, 14.70341682434082, 7.246056079864502, 14.306986808776855, 0.08000000566244125, 0.01600000075995922, 1.040000081062317, 0.0, 0.0, 0.0, 0.0, 0.0, 1.613351084530848E9, 2021-02-14 20:04:44.530
54.0, 15.266271591186523, 17.38118553161621, 11.128072738647461, 11.094412803649902, 0.08000000566244125, 0.01600000075995922, 1.040000081062317, 0.0, 0.0, 0.0, 0.0, 0.0, 1.613351084530848E9, 2021-02-14 20:04:44.530
55.0, 13.063470840454102, 27.030126571655273, 20.178630828857422, 20.23472785949707, 0.08000000566244125, 0.01600000075995922, 1.040000081062317, 0.0, 0.0, 0.0, 0.0, 0.0, 1.613351084531565E9, 2021-02-14 20:04:44.531
55.0, 17.311996459960938, 27.299400329589844, 19.483009338378906, 27.28070068359375, 0.08000000566244125, 0.01600000075995922, 1.040000081062317, 0.0, 0.0, 0.0, 0.0, 0.0, 1.613351084531565E9, 2021-02-14 20:04:44.531
56.0, 10.726033210754395, 10.970996856689453, 7.769642353057861, 7.189957618713379, 0.08000000566244125, 0.01600000075995922, 1.040000081062317, 0.0, 0.0, 0.0, 0.0, 0.0, 1.613351084545132E9, 2021-02-14 20:04:44.545
56.0, 18.310550689697266, 22.14955711364746, 18.675189971923828, 21.08368682861328, 0.08000000566244125, 0.01600000075995922, 1.040000081062317, 0.0, 0.0, 0.0, 0.0, 0.0, 1.613351084545132E9, 2021-02-14 20:04:44.545
57.0, 16.193767547607422, 26.098892211914062, 25.964256286621094, 25.751081466674805, 0.08000000566244125, 0.01600000075995922, 1.040000081062317, 0.0, 0.0, 0.0, 0.0, 0.0, 1.613351084560809E9, 2021-02-14 20:04:44.560
57.0, 13.845109939575195, 8.82055377960205, 2.346787214279175, 5.495782852172852, 0.08000000566244125, 0.01600000075995922, 1.040000081062317, 0.0, 0.0, 0.0, 0.0, 0.0, 1.613351084560809E9, 2021-02-14 20:04:44.560
58.0, 19.76163101196289, 22.916236877441406, 18.40591812133789, 17.022153854370117, 0.08000000566244125, 0.01600000075995922, 1.040000081062317, 0.0, 0.0, 0.0, 0.0, 0.0, 1.613351084561556E9, 2021-02-14 20:04:44.561
58.0, 20.07204246520996, 29.1730899810791, 25.93807601928711, 31.97801399230957, 0.08000000566244125, 0.01600000075995922, 1.040000081062317, 0.0, 0.0, 0.0, 0.0, 0.0, 1.613351084561556E9, 2021-02-14 20:04:44.561
59.0, 11.010265350341797, 14.565040588378906, 9.329180717468262, 8.038914680480957, 0.08000000566244125, 0.01600000075995922, 1.040000081062317, 0.0, 0.0, 0.0, 0.0, 0.0, 1.613351084591532E9, 2021-02-14 20:04:44.591
59.0, 12.30427074432373, 15.851566314697266, 11.44222354888916, 13.173797607421875, 0.08000000566244125, 0.01600000075995922, 1.040000081062317, 0.0, 0.0, 0.0, 0.0, 0.0, 1.613351084591532E9, 2021-02-14 20:04:44.591
60.0, 15.255051612854004, 23.727794647216797, 21.300600051879883, 22.056060791015625, 0.08000000566244125, 0.01600000075995922, 1.040000081062317, 0.0, 0.0, 0.0, 0.0, 0.0, 1.613351084592266E9, 2021-02-14 20:04:44.592
60.0, 16.4966983795166, 26.00165367126465, 24.22146224975586, 18.918283462524414, 0.08000000566244125, 0.01600000075995922, 1.040000081062317, 0.0, 0.0, 0.0, 0.0, 0.0, 1.613351084592266E9, 2021-02-14 20:04:44.592
61.0, 9.405848503112793, 9.86772632598877, 4.6767449378967285, 6.370919704437256, 0.08000000566244125, 0.01600000075995922, 1.040000081062317, 0.0, 0.0, 0.0, 0.0, 0.0, 1.613351084592958E9, 2021-02-14 20:04:44.592
61.0, 15.849696159362793, 22.654443740844727, 18.08054542541504, 14.295767784118652, 0.08000000566244125, 0.01600000075995922, 1.040000081062317, 0.0, 0.0, 0.0, 0.0, 0.0, 1.613351084592958E9, 2021-02-14 20:04:44.592
62.0, 18.97251319885254, 32.4604606628418, 30.253921508789062, 23.495922088623047, 0.08000000566244125, 0.01600000075995922, 1.040000081062317, 0.0, 0.0, 0.0, 0.0, 0.0, 1.613351084605144E9, 2021-02-14 20:04:44.605
62.0, 8.676568031311035, 10.982215881347656, 5.73513650894165, 5.851073265075684, 0.08000000566244125, 0.01600000075995922, 1.040000081062317, 0.0, 0.0, 0.0, 0.0, 0.0, 1.613351084605144E9, 2021-02-14 20:04:44.605
63.0, 16.728572845458984, 18.428356170654297, 15.93010425567627, 23.43608283996582, 0.08000000566244125, 0.01600000075995922, 1.040000081062317, 0.0, 0.0, 0.0, 0.0, 0.0, 1.613351084637153E9, 2021-02-14 20:04:44.637
63.0, 23.666086196899414, 28.514867782592773, 31.910696029663086, 34.562286376953125, 0.08000000566244125, 0.01600000075995922, 1.040000081062317, 0.0, 0.0, 0.0, 0.0, 0.0, 1.613351084637153E9, 2021-02-14 20:04:44.637
64.0, 12.023777961730957, 12.317360877990723, 8.472743034362793, 10.937337875366211, 0.08000000566244125, 0.01600000075995922, 1.040000081062317, 0.0, 0.0, 0.0, 0.0, 0.0, 1.613351084637887E9, 2021-02-14 20:04:44.637
64.0, 15.741238594055176, 15.39529800415039, 13.805840492248535, 14.340646743774414, 0.08000000566244125, 0.01600000075995922, 1.040000081062317, 0.0, 0.0, 0.0, 0.0, 0.0, 1.613351084637887E9, 2021-02-14 20:04:44.637
65.0, 18.692020416259766, 28.529827117919922, 22.03736114501953, 27.284440994262695, 0.08000000566244125, 0.01600000075995922, 1.040000081062317, 0.0, 0.0, 0.0, 0.0, 0.0, 1.613351084638617E9, 2021-02-14 20:04:44.638
65.0, 16.0740909576416, 25.01058006286621, 19.78968048095703, 26.753374099731445, 0.08000000566244125, 0.01600000075995922, 1.040000081062317, 0.0, 0.0, 0.0, 0.0, 0.0, 1.613351084638617E9, 2021-02-14 20:04:44.638
66.0, 13.22054672241211, 16.233036041259766, 10.084640502929688, 11.999468803405762, 0.08000000566244125, 0.01600000075995922, 1.040000081062317, 0.0, 0.0, 0.0, 0.0, 0.0, 1.613351084639733E9, 2021-02-14 20:04:44.639
66.0, 15.928234100341797, 23.488441467285156, 17.91973114013672, 20.1000919342041, 0.08000000566244125, 0.01600000075995922, 1.040000081062317, 0.0, 0.0, 0.0, 0.0, 0.0, 1.613351084639733E9, 2021-02-14 20:04:44.639
67.0, 22.132728576660156, 28.48868751525879, 28.589664459228516, 30.08562469482422, 0.08000000566244125, 0.01600000075995922, 1.040000081062317, 0.0, 0.0, 0.0, 0.0, 0.0, 1.613351084650127E9, 2021-02-14 20:04:44.650
67.0, 12.278091430664062, 7.990296363830566, 5.619199752807617, 3.4575374126434326, 0.08000000566244125, 0.01600000075995922, 1.040000081062317, 0.0, 0.0, 0.0, 0.0, 0.0, 1.613351084650127E9, 2021-02-14 20:04:44.650
68.0, 12.726879119873047, 20.04399299621582, 13.065340042114258, 15.814167022705078, 0.08000000566244125, 0.01600000075995922, 1.040000081062317, 0.0, 0.0, 0.0, 0.0, 0.0, 1.613351084665154E9, 2021-02-14 20:04:44.665
68.0, 19.20438575744629, 30.684009552001953, 24.943262100219727, 30.186601638793945, 0.08000000566244125, 0.01600000075995922, 1.040000081062317, 0.0, 0.0, 0.0, 0.0, 0.0, 1.613351084665154E9, 2021-02-14 20:04:44.665
69.0, 15.681400299072266, 15.649611473083496, 9.385278701782227, 12.78858757019043, 0.08000000566244125, 0.01600000075995922, 1.040000081062317, 0.0, 0.0, 0.0, 0.0, 0.0, 1.61335108469727E9, 2021-02-14 20:04:44.697
69.0, 10.669934272766113, 19.157636642456055, 16.2853946685791, 13.35705280303955, 0.08000000566244125, 0.01600000075995922, 1.040000081062317, 0.0, 0.0, 0.0, 0.0, 0.0, 1.61335108469727E9, 2021-02-14 20:04:44.697
70.0, 18.041276931762695, 24.262601852416992, 24.02324676513672, 26.783292770385742, 0.08000000566244125, 0.01600000075995922, 1.040000081062317, 0.0, 0.0, 0.0, 0.0, 0.0, 1.613351084697886E9, 2021-02-14 20:04:44.697
70.0, 18.87153434753418, 24.21398162841797, 18.45453643798828, 22.254274368286133, 0.08000000566244125, 0.01600000075995922, 1.040000081062317, 0.0, 0.0, 0.0, 0.0, 0.0, 1.613351084697886E9, 2021-02-14 20:04:44.697
71.0, 12.192073822021484, 13.450550079345703, 5.147972106933594, 7.511589050292969, 0.08000000566244125, 0.01600000075995922, 1.040000081062317, 0.0, 0.0, 0.0, 0.0, 0.0, 1.613351084698716E9, 2021-02-14 20:04:44.698
71.0, 17.723386764526367, 26.237268447875977, 22.392650604248047, 25.848318099975586, 0.08000000566244125, 0.01600000075995922, 1.040000081062317, 0.0, 0.0, 0.0, 0.0, 0.0, 1.613351084698716E9, 2021-02-14 20:04:44.698
72.0, 19.26048469543457, 28.8215389251709, 24.337398529052734, 30.747587203979492, 0.08000000566244125, 0.01600000075995922, 1.040000081062317, 0.0, 0.0, 0.0, 0.0, 0.0, 1.613351084699347E9, 2021-02-14 20:04:44.699
72.0, 9.394628524780273, 9.680730819702148, 0.48057714104652405, 0.12528665363788605, 0.08000000566244125, 0.01600000075995922, 1.040000081062317, 0.0, 0.0, 0.0, 0.0, 0.0, 1.613351084699347E9, 2021-02-14 20:04:44.699
73.0, 11.818083763122559, 20.777013778686523, 19.071619033813477, 18.66771125793457, 0.08000000566244125, 0.01600000075995922, 1.040000081062317, 0.0, 0.0, 0.0, 0.0, 0.0, 1.613351084710087E9, 2021-02-14 20:04:44.710
73.0, 22.125247955322266, 29.30772590637207, 26.125070571899414, 29.838790893554688, 0.08000000566244125, 0.01600000075995922, 1.040000081062317, 0.0, 0.0, 0.0, 0.0, 0.0, 1.613351084710087E9, 2021-02-14 20:04:44.710
74.0, 8.960800170898438, 16.37141227722168, 11.075714111328125, 13.042901039123535, 0.08000000566244125, 0.01600000075995922, 1.040000081062317, 0.0, 0.0, 0.0, 0.0, 0.0, 1.61335108472506E9, 2021-02-14 20:04:44.725
74.0, 14.836183547973633, 17.75517463684082, 13.278514862060547, 14.19105052947998, 0.08000000566244125, 0.01600000075995922, 1.040000081062317, 0.0, 0.0, 0.0, 0.0, 0.0, 1.61335108472506E9, 2021-02-14 20:04:44.725
75.0, 16.560277938842773, 24.584232330322266, 21.39409828186035, 25.264894485473633, 0.08000000566244125, 0.01600000075995922, 1.040000081062317, 0.0, 0.0, 0.0, 0.0, 0.0, 1.613351084772856E9, 2021-02-14 20:04:44.772
75.0, 19.51479721069336, 25.522947311401367, 22.190696716308594, 29.59195899963379, 0.08000000566244125, 0.01600000075995922, 1.040000081062317, 0.0, 0.0, 0.0, 0.0, 0.0, 1.613351084772856E9, 2021-02-14 20:04:44.772
76.0, 13.946086883544922, 12.631511688232422, 8.001516342163086, 5.00959587097168, 0.08000000566244125, 0.01600000075995922, 1.040000081062317, 0.0, 0.0, 0.0, 0.0, 0.0, 1.613351084773618E9, 2021-02-14 20:04:44.773
76.0, 15.337329864501953, 24.041946411132812, 19.62138557434082, 16.51352882385254, 0.08000000566244125, 0.01600000075995922, 1.040000081062317, 0.0, 0.0, 0.0, 0.0, 0.0, 1.613351084773618E9, 2021-02-14 20:04:44.773
77.0, 20.135622024536133, 29.681716918945312, 29.176830291748047, 30.08562469482422, 0.08000000566244125, 0.01600000075995922, 1.040000081062317, 0.0, 0.0, 0.0, 0.0, 0.0, 1.613351084774391E9, 2021-02-14 20:04:44.774
77.0, 7.603216648101807, 11.288887977600098, 6.707510471343994, 3.494936466217041, 0.08000000566244125, 0.01600000075995922, 1.040000081062317, 0.0, 0.0, 0.0, 0.0, 0.0, 1.613351084774391E9, 2021-02-14 20:04:44.774
78.0, 15.135375022888184, 20.189849853515625, 14.067633628845215, 18.41339683532715, 0.08000000566244125, 0.01600000075995922, 1.040000081062317, 0.0, 0.0, 0.0, 0.0, 0.0, 1.613351084775112E9, 2021-02-14 20:04:44.775
